ENLIGHTEN Version,1.7.2
Measurement ID,20190716-221623-575978-WP-00438
Serial Number,WP-00438
Label,alkanes 2mm HDPE
Integration Time,2000
Timestamp,2019-07-16 22:16:23.575978
Note,
Temperature,-99
CCD C0,807.1400146484375
CCD C1,0.11761099845170975
CCD C2,-1.6414700439781882e-05
CCD C3,2.3293600381890656e-09
CCD Offset,0
CCD Gain,8.0
Laser Wavelength,785.0
Laser Enable,True
Laser Power,100.0
Laser Temperature,-99
Pixel Count,1952

Wavenumber,Processed
349.43,0.00
351.23,0.00
353.04,0.00
354.84,6825.00
356.64,5278.00
358.44,6614.00
360.24,5482.00
362.04,6740.00
363.84,5583.00
365.64,6511.00
367.43,5590.00
369.23,6748.00
371.02,5584.00
372.81,6662.00
374.60,5427.00
376.39,6455.00
378.18,5578.00
379.97,6602.00
381.76,5369.00
383.55,6476.00
385.33,5526.00
387.11,6467.00
388.90,5547.00
390.68,6421.00
392.46,5383.00
394.24,6337.00
396.02,5589.00
397.80,6280.00
399.58,5419.00
401.35,6425.00
403.13,5060.00
404.90,6203.00
406.68,5300.00
408.45,6330.00
410.22,5434.00
411.99,6269.00
413.76,5481.00
415.53,6286.00
417.30,5512.00
419.06,6255.00
420.83,5300.00
422.59,6391.00
424.35,5577.00
426.12,6382.00
427.88,5518.00
429.64,6307.00
431.40,5473.00
433.16,6186.00
434.91,5281.00
436.67,6385.00
438.43,5419.00
440.18,6340.00
441.93,5407.00
443.69,6236.00
445.44,5480.00
447.19,6189.00
448.94,5075.00
450.69,6128.00
452.43,5206.00
454.18,6024.00
455.92,5386.00
457.67,6306.00
459.41,5214.00
461.16,5770.00
462.90,5168.00
464.64,5763.00
466.38,5086.00
468.12,5968.00
469.85,4974.00
471.59,5974.00
473.33,5035.00
475.06,5711.00
476.80,4884.00
478.53,5717.00
480.26,4787.00
481.99,5655.00
483.72,4827.00
485.45,5712.00
487.18,4943.00
488.91,5600.00
490.63,4729.00
492.36,5551.00
494.08,4842.00
495.80,5624.00
497.53,4929.00
499.25,5506.00
500.97,4646.00
502.69,5436.00
504.41,4668.00
506.12,5501.00
507.84,4451.00
509.56,5433.00
511.27,4641.00
512.98,5470.00
514.70,4630.00
516.41,5405.00
518.12,4364.00
519.83,5278.00
521.54,4377.00
523.25,5316.00
524.95,4356.00
526.66,5247.00
528.36,4355.00
530.07,5277.00
531.77,4353.00
533.47,5247.00
535.18,4394.00
536.88,5077.00
538.58,4240.00
540.27,5158.00
541.97,4217.00
543.67,5273.00
545.36,4222.00
547.06,5111.00
548.75,4307.00
550.45,5168.00
552.14,4354.00
553.83,5037.00
555.52,4282.00
557.21,4979.00
558.90,4332.00
560.58,4811.00
562.27,4227.00
563.96,4906.00
565.64,4239.00
567.32,5006.00
569.01,4183.00
570.69,4944.00
572.37,4102.00
574.05,4958.00
575.73,4091.00
577.41,4934.00
579.08,4164.00
580.76,4976.00
582.44,4094.00
584.11,5043.00
585.78,4091.00
587.46,4890.00
589.13,4077.00
590.80,4829.00
592.47,4258.00
594.14,5082.00
595.81,4137.00
597.47,5045.00
599.14,4164.00
600.80,4950.00
602.47,4142.00
604.13,5033.00
605.79,4153.00
607.46,4963.00
609.12,4014.00
610.78,4674.00
612.44,3991.00
614.09,4728.00
615.75,4279.00
617.41,4873.00
619.06,3980.00
620.72,4944.00
622.37,4085.00
624.02,4672.00
625.67,4116.00
627.33,4848.00
628.97,3915.00
630.62,4641.00
632.27,4057.00
633.92,4713.00
635.57,3946.00
637.21,4709.00
638.86,4101.00
640.50,4591.00
642.14,3885.00
643.78,4612.00
645.42,4103.00
647.06,4663.00
648.70,3888.00
650.34,4630.00
651.98,3843.00
653.62,4671.00
655.25,3881.00
656.89,4524.00
658.52,3923.00
660.15,4323.00
661.79,3694.00
663.42,4328.00
665.05,3812.00
666.68,4522.00
668.31,3657.00
669.93,4587.00
671.56,3742.00
673.19,4558.00
674.81,3638.00
676.43,4455.00
678.06,3759.00
679.68,4339.00
681.30,3736.00
682.92,4337.00
684.54,3702.00
686.16,4219.00
687.78,3783.00
689.40,4256.00
691.01,3505.00
692.63,4272.00
694.24,3626.00
695.86,4464.00
697.47,3813.00
699.08,4411.00
700.69,3675.00
702.30,4369.00
703.91,3739.00
705.52,4400.00
707.13,3654.00
708.74,4432.00
710.34,3792.00
711.95,4423.00
713.55,3785.00
715.15,4289.00
716.76,3777.00
718.36,4415.00
719.96,3711.00
721.56,4352.00
723.16,3812.00
724.76,4253.00
726.35,3718.00
727.95,4170.00
729.55,3778.00
731.14,4457.00
732.73,3823.00
734.33,4385.00
735.92,3867.00
737.51,4362.00
739.10,3774.00
740.69,4598.00
742.28,3719.00
743.87,4480.00
745.46,3922.00
747.04,4541.00
748.63,3646.00
750.21,4409.00
751.80,3861.00
753.38,4582.00
754.96,3835.00
756.54,4600.00
758.12,3755.00
759.70,4527.00
761.28,3867.00
762.86,4708.00
764.44,3859.00
766.01,4483.00
767.59,3852.00
769.16,4650.00
770.74,3968.00
772.31,4562.00
773.88,4050.00
775.45,4671.00
777.02,3983.00
778.59,4735.00
780.16,3995.00
781.73,4723.00
783.30,3976.00
784.86,4919.00
786.43,4157.00
787.99,4662.00
789.56,3885.00
791.12,4583.00
792.68,4108.00
794.24,4646.00
795.80,4199.00
797.36,4885.00
798.92,4099.00
800.48,4676.00
802.04,4120.00
803.59,4909.00
805.15,4071.00
806.70,4688.00
808.26,4221.00
809.81,4816.00
811.36,4152.00
812.91,4945.00
814.46,4157.00
816.01,5115.00
817.56,4474.00
819.11,4940.00
820.66,4409.00
822.20,5006.00
823.75,4473.00
825.30,5289.00
826.84,4363.00
828.38,4947.00
829.93,4323.00
831.47,5130.00
833.01,4380.00
834.55,5179.00
836.09,4448.00
837.63,5264.00
839.16,4523.00
840.70,5131.00
842.24,4421.00
843.77,5310.00
845.31,4504.00
846.84,5461.00
848.37,4617.00
849.90,5426.00
851.44,4690.00
852.97,5397.00
854.50,4547.00
856.03,5264.00
857.55,4879.00
859.08,5347.00
860.61,4661.00
862.13,5200.00
863.66,4516.00
865.18,5453.00
866.70,4759.00
868.23,5448.00
869.75,4674.00
871.27,5397.00
872.79,4496.00
874.31,5414.00
875.83,4793.00
877.35,5417.00
878.86,4695.00
880.38,5542.00
881.89,4747.00
883.41,5255.00
884.92,4819.00
886.44,5292.00
887.95,4739.00
889.46,5381.00
890.97,4746.00
892.48,5398.00
893.99,4598.00
895.50,5422.00
897.01,4725.00
898.51,5428.00
900.02,4582.00
901.52,5344.00
903.03,4571.00
904.53,5219.00
906.04,4579.00
907.54,5215.00
909.04,4536.00
910.54,5171.00
912.04,4553.00
913.54,5146.00
915.04,4467.00
916.53,5134.00
918.03,4366.00
919.53,5036.00
921.02,4468.00
922.52,5280.00
924.01,4115.00
925.50,5137.00
927.00,4307.00
928.49,4915.00
929.98,4345.00
931.47,4994.00
932.96,4028.00
934.44,4833.00
935.93,4187.00
937.42,4602.00
938.90,4085.00
940.39,4759.00
941.87,3958.00
943.36,4628.00
944.84,4150.00
946.32,4653.00
947.80,4058.00
949.29,4747.00
950.77,4068.00
952.24,4859.00
953.72,4111.00
955.20,4725.00
956.68,3907.00
958.15,4700.00
959.63,4044.00
961.10,4534.00
962.58,3939.00
964.05,4651.00
965.52,4041.00
967.00,4573.00
968.47,4076.00
969.94,4627.00
971.41,4048.00
972.87,4522.00
974.34,3796.00
975.81,4574.00
977.28,3962.00
978.74,4584.00
980.21,3733.00
981.67,4546.00
983.13,4061.00
984.60,4542.00
986.06,3811.00
987.52,4570.00
988.98,3689.00
990.44,4657.00
991.90,3872.00
993.36,4477.00
994.82,3829.00
996.27,4369.00
997.73,4108.00
999.18,4573.00
1000.64,3984.00
1002.09,4504.00
1003.55,3950.00
1005.00,4608.00
1006.45,4097.00
1007.90,4578.00
1009.35,3976.00
1010.80,4666.00
1012.25,4113.00
1013.70,4663.00
1015.14,3993.00
1016.59,4757.00
1018.04,4135.00
1019.48,4644.00
1020.93,4014.00
1022.37,4923.00
1023.81,4135.00
1025.25,4765.00
1026.70,4147.00
1028.14,4936.00
1029.58,4539.00
1031.02,5284.00
1032.45,4519.00
1033.89,5574.00
1035.33,5121.00
1036.77,6141.00
1038.20,5767.00
1039.64,6932.00
1041.07,6289.00
1042.50,7518.00
1043.94,7034.00
1045.37,7689.00
1046.80,7360.00
1048.23,7919.00
1049.66,6942.00
1051.09,7715.00
1052.52,7003.00
1053.95,7629.00
1055.37,6981.00
1056.80,7455.00
1058.23,6768.00
1059.65,7396.00
1061.08,6820.00
1062.50,7585.00
1063.92,6890.00
1065.34,7644.00
1066.76,6472.00
1068.19,7435.00
1069.61,6528.00
1071.02,6964.00
1072.44,6061.00
1073.86,6785.00
1075.28,5727.00
1076.69,6549.00
1078.11,5841.00
1079.53,6381.00
1080.94,5641.00
1082.35,6295.00
1083.77,5386.00
1085.18,6128.00
1086.59,5220.00
1088.00,5788.00
1089.41,5100.00
1090.82,5754.00
1092.23,4984.00
1093.64,5828.00
1095.04,5076.00
1096.45,5840.00
1097.86,5476.00
1099.26,6272.00
1100.67,5779.00
1102.07,6709.00
1103.47,6355.00
1104.88,7510.00
1106.28,7224.00
1107.68,8178.00
1109.08,7672.00
1110.48,9037.00
1111.88,8243.00
1113.28,9134.00
1114.67,8444.00
1116.07,8736.00
1117.47,8046.00
1118.86,8258.00
1120.26,7533.00
1121.65,8110.00
1123.05,7417.00
1124.44,7949.00
1125.83,6993.00
1127.22,8036.00
1128.61,7229.00
1130.00,8046.00
1131.39,6992.00
1132.78,7714.00
1134.17,6617.00
1135.56,7415.00
1136.94,6358.00
1138.33,7116.00
1139.72,6503.00
1141.10,6839.00
1142.48,6045.00
1143.87,6654.00
1145.25,5977.00
1146.63,6714.00
1148.01,5856.00
1149.39,6510.00
1150.77,5622.00
1152.15,6302.00
1153.53,5606.00
1154.91,6387.00
1156.29,5368.00
1157.66,6150.00
1159.04,5338.00
1160.41,5709.00
1161.79,5082.00
1163.16,5777.00
1164.54,5166.00
1165.91,5734.00
1167.28,5206.00
1168.65,5700.00
1170.02,5111.00
1171.39,5504.00
1172.76,4790.00
1174.13,5660.00
1175.50,4979.00
1176.86,5438.00
1178.23,4779.00
1179.60,5502.00
1180.96,4754.00
1182.33,5232.00
1183.69,4724.00
1185.05,5404.00
1186.42,4567.00
1187.78,5163.00
1189.14,4603.00
1190.50,5148.00
1191.86,4588.00
1193.22,4998.00
1194.58,4463.00
1195.94,5283.00
1197.29,4462.00
1198.65,5012.00
1200.01,4494.00
1201.36,5159.00
1202.72,4481.00
1204.07,4982.00
1205.42,4552.00
1206.78,5049.00
1208.13,4526.00
1209.48,4820.00
1210.83,4412.00
1212.18,4953.00
1213.53,4490.00
1214.88,5020.00
1216.23,4298.00
1217.58,4830.00
1218.92,4479.00
1220.27,5040.00
1221.61,4320.00
1222.96,4743.00
1224.30,4330.00
1225.65,4864.00
1226.99,4439.00
1228.33,4727.00
1229.67,4235.00
1231.01,4833.00
1232.36,4395.00
1233.70,4767.00
1235.03,4260.00
1236.37,4936.00
1237.71,4303.00
1239.05,5097.00
1240.38,4246.00
1241.72,4946.00
1243.06,4384.00
1244.39,5079.00
1245.72,4432.00
1247.06,5062.00
1248.39,4454.00
1249.72,5026.00
1251.05,4505.00
1252.39,5037.00
1253.72,4520.00
1255.05,5222.00
1256.37,4602.00
1257.70,5206.00
1259.03,4483.00
1260.36,5259.00
1261.68,4802.00
1263.01,5608.00
1264.33,4920.00
1265.66,5983.00
1266.98,5620.00
1268.31,6478.00
1269.63,6410.00
1270.95,7464.00
1272.27,7509.00
1273.59,8467.00
1274.91,8424.00
1276.23,9174.00
1277.55,9065.00
1278.87,9533.00
1280.19,9048.00
1281.51,9392.00
1282.82,8676.00
1284.14,9063.00
1285.45,8542.00
1286.77,8942.00
1288.08,8118.00
1289.39,8442.00
1290.71,8052.00
1292.02,8770.00
1293.33,8126.00
1294.64,8699.00
1295.95,7875.00
1297.26,8655.00
1298.57,7813.00
1299.88,8506.00
1301.19,7525.00
1302.49,7869.00
1303.80,7180.00
1305.11,7443.00
1306.41,6598.00
1307.72,7124.00
1309.02,6254.00
1310.32,6635.00
1311.63,5854.00
1312.93,6122.00
1314.23,5656.00
1315.53,6029.00
1316.83,5432.00
1318.13,5612.00
1319.43,5037.00
1320.73,5502.00
1322.03,4774.00
1323.32,5413.00
1324.62,4907.00
1325.92,5365.00
1327.21,4532.00
1328.51,5124.00
1329.80,4491.00
1331.10,5045.00
1332.39,4437.00
1333.68,4984.00
1334.97,4302.00
1336.27,4867.00
1337.56,4314.00
1338.85,4929.00
1340.14,4157.00
1341.42,5003.00
1342.71,4190.00
1344.00,4835.00
1345.29,4236.00
1346.57,5075.00
1347.86,4236.00
1349.15,4814.00
1350.43,4486.00
1351.71,5075.00
1353.00,4575.00
1354.28,5246.00
1355.56,4428.00
1356.85,5047.00
1358.13,4548.00
1359.41,4843.00
1360.69,4402.00
1361.97,4850.00
1363.25,4332.00
1364.52,4883.00
1365.80,4298.00
1367.08,4865.00
1368.35,4439.00
1369.63,4869.00
1370.91,4232.00
1372.18,4897.00
1373.45,4300.00
1374.73,4742.00
1376.00,4345.00
1377.27,4978.00
1378.54,4255.00
1379.82,4790.00
1381.09,4246.00
1382.36,4987.00
1383.63,4525.00
1384.89,5054.00
1386.16,4628.00
1387.43,5124.00
1388.70,4708.00
1389.96,5251.00
1391.23,5142.00
1392.50,5892.00
1393.76,5556.00
1395.02,6208.00
1396.29,5957.00
1397.55,6575.00
1398.81,6200.00
1400.08,7158.00
1401.34,6429.00
1402.60,7169.00
1403.86,6776.00
1405.12,7327.00
1406.38,6879.00
1407.63,7471.00
1408.89,7124.00
1410.15,7844.00
1411.41,7770.00
1412.66,8832.00
1413.92,8394.00
1415.17,9507.00
1416.43,9590.00
1417.68,10614.00
1418.93,10416.00
1420.19,11484.00
1421.44,11368.00
1422.69,12106.00
1423.94,11459.00
1425.19,12426.00
1426.44,12115.00
1427.69,12570.00
1428.94,11913.00
1430.19,12498.00
1431.43,11817.00
1432.68,12654.00
1433.93,11941.00
1435.17,12905.00
1436.42,12053.00
1437.66,12728.00
1438.91,12579.00
1440.15,13377.00
1441.39,12476.00
1442.64,13247.00
1443.88,12747.00
1445.12,13334.00
1446.36,12878.00
1447.60,13116.00
1448.84,12438.00
1450.08,12870.00
1451.32,11993.00
1452.56,12349.00
1453.79,11338.00
1455.03,11887.00
1456.27,10871.00
1457.50,11126.00
1458.74,10583.00
1459.97,10549.00
1461.21,9711.00
1462.44,10188.00
1463.67,9349.00
1464.91,9690.00
1466.14,9091.00
1467.37,8902.00
1468.60,8436.00
1469.83,8602.00
1471.06,7779.00
1472.29,7996.00
1473.52,7318.00
1474.75,7730.00
1475.97,6968.00
1477.20,7165.00
1478.43,6667.00
1479.65,6775.00
1480.88,6198.00
1482.10,6433.00
1483.33,5936.00
1484.55,6014.00
1485.77,5558.00
1487.00,5828.00
1488.22,5202.00
1489.44,5730.00
1490.66,5147.00
1491.88,5328.00
1493.10,4961.00
1494.32,5210.00
1495.54,4904.00
1496.76,5078.00
1497.97,4519.00
1499.19,5055.00
1500.41,4438.00
1501.62,4966.00
1502.84,4202.00
1504.05,4885.00
1505.27,4255.00
1506.48,4511.00
1507.70,4196.00
1508.91,4540.00
1510.12,4038.00
1511.33,4445.00
1512.54,4162.00
1513.75,4619.00
1514.96,3885.00
1516.17,4467.00
1517.38,3883.00
1518.59,4432.00
1519.80,3960.00
1521.01,4358.00
1522.21,3944.00
1523.42,4303.00
1524.63,3807.00
1525.83,4456.00
1527.04,3747.00
1528.24,4466.00
1529.44,3709.00
1530.65,4294.00
1531.85,3794.00
1533.05,4389.00
1534.25,3637.00
1535.45,4283.00
1536.65,3705.00
1537.85,4096.00
1539.05,3540.00
1540.25,4014.00
1541.45,3618.00
1542.65,3992.00
1543.85,3761.00
1545.04,3857.00
1546.24,3524.00
1547.44,3998.00
1548.63,3677.00
1549.83,4124.00
1551.02,3641.00
1552.21,4017.00
1553.41,3469.00
1554.60,3919.00
1555.79,3302.00
1556.98,3780.00
1558.17,3401.00
1559.37,3693.00
1560.56,3381.00
1561.74,3752.00
1562.93,3227.00
1564.12,3866.00
1565.31,3215.00
1566.50,3777.00
1567.68,3242.00
1568.87,3769.00
1570.06,3250.00
1571.24,3670.00
1572.43,3099.00
1573.61,3729.00
1574.80,3043.00
1575.98,3889.00
1577.16,3234.00
1578.34,3588.00
1579.53,3042.00
1580.71,3461.00
1581.89,3017.00
1583.07,3715.00
1584.25,3024.00
1585.43,3506.00
1586.61,3090.00
1587.78,3342.00
1588.96,3002.00
1590.14,3599.00
1591.32,2981.00
1592.49,3486.00
1593.67,3166.00
1594.84,3429.00
1596.02,2838.00
1597.19,3460.00
1598.37,2997.00
1599.54,3237.00
1600.71,3013.00
1601.88,3355.00
1603.06,3031.00
1604.23,3382.00
1605.40,2867.00
1606.57,3231.00
1607.74,2925.00
1608.91,3167.00
1610.07,3147.00
1611.24,3356.00
1612.41,2840.00
1613.58,3400.00
1614.74,3005.00
1615.91,3428.00
1617.08,2977.00
1618.24,3416.00
1619.41,2851.00
1620.57,3465.00
1621.73,2945.00
1622.90,3353.00
1624.06,3031.00
1625.22,3375.00
1626.38,2894.00
1627.54,3161.00
1628.70,3053.00
1629.87,3407.00
1631.02,2818.00
1632.18,3356.00
1633.34,2729.00
1634.50,3235.00
1635.66,2820.00
1636.82,3262.00
1637.97,2887.00
1639.13,3216.00
1640.28,2921.00
1641.44,3374.00
1642.59,2814.00
1643.75,3222.00
1644.90,2737.00
1646.06,3350.00
1647.21,2784.00
1648.36,3111.00
1649.51,2976.00
1650.66,3432.00
1651.81,2801.00
1652.97,3298.00
1654.11,3005.00
1655.26,3272.00
1656.41,2727.00
1657.56,3442.00
1658.71,2817.00
1659.86,3205.00
1661.00,2832.00
1662.15,3092.00
1663.30,2939.00
1664.44,3168.00
1665.59,2814.00
1666.73,3198.00
1667.88,2788.00
1669.02,3146.00
1670.16,2908.00
1671.30,3127.00
1672.45,2763.00
1673.59,3303.00
1674.73,2730.00
1675.87,3150.00
1677.01,2788.00
1678.15,3111.00
1679.29,3094.00
1680.43,3384.00
1681.57,2734.00
1682.70,3234.00
1683.84,2769.00
1684.98,3338.00
1686.12,2881.00
1687.25,3194.00
1688.39,2930.00
1689.52,3328.00
1690.66,2844.00
1691.79,3148.00
1692.92,2863.00
1694.06,3184.00
1695.19,2829.00
1696.32,3268.00
1697.45,2921.00
1698.58,3477.00
1699.72,2724.00
1700.85,3284.00
1701.98,2894.00
1703.10,3238.00
1704.23,2837.00
1705.36,3198.00
1706.49,2992.00
1707.62,3323.00
1708.74,2959.00
1709.87,3362.00
1711.00,2936.00
1712.12,3123.00
1713.25,2646.00
1714.37,3199.00
1715.50,2892.00
1716.62,3283.00
1717.74,2910.00
1718.87,3303.00
1719.99,2815.00
1721.11,3232.00
1722.23,2746.00
1723.35,3346.00
1724.47,2954.00
1725.59,3202.00
1726.71,3013.00
1727.83,3253.00
1728.95,2783.00
1730.07,3115.00
1731.19,2764.00
1732.30,3359.00
1733.42,2841.00
1734.54,3188.00
1735.65,2759.00
1736.77,3310.00
1737.88,2747.00
1739.00,3403.00
1740.11,2820.00
1741.23,3278.00
1742.34,2759.00
1743.45,3023.00
1744.56,2805.00
1745.68,3114.00
1746.79,2719.00
1747.90,3227.00
1749.01,2692.00
1750.12,3004.00
1751.23,2576.00
1752.34,3089.00
1753.45,2510.00
1754.55,3080.00
1755.66,2619.00
1756.77,3021.00
1757.88,2635.00
1758.98,3021.00
1760.09,2706.00
1761.19,3263.00
1762.30,2611.00
1763.40,3082.00
1764.51,2686.00
1765.61,3058.00
1766.71,2486.00
1767.82,2953.00
1768.92,2579.00
1770.02,3129.00
1771.12,2533.00
1772.22,3030.00
1773.32,2589.00
1774.42,3189.00
1775.52,2548.00
1776.62,2857.00
1777.72,2462.00
1778.82,2754.00
1779.92,2619.00
1781.01,2937.00
1782.11,2290.00
1783.21,2896.00
1784.30,2535.00
1785.40,2782.00
1786.50,2543.00
1787.59,2954.00
1788.68,2372.00
1789.78,2833.00
1790.87,2397.00
1791.96,2814.00
1793.06,2256.00
1794.15,2827.00
1795.24,2482.00
1796.33,2874.00
1797.42,2212.00
1798.51,2849.00
1799.60,2436.00
1800.69,2646.00
1801.78,2342.00
1802.87,2703.00
1803.96,2274.00
1805.05,2593.00
1806.13,2283.00
1807.22,2604.00
1808.31,2284.00
1809.39,2557.00
1810.48,2268.00
1811.56,2605.00
1812.65,2223.00
1813.73,2545.00
1814.82,2187.00
1815.90,2451.00
1816.98,2118.00
1818.07,2662.00
1819.15,2136.00
1820.23,2605.00
1821.31,2092.00
1822.39,2459.00
1823.47,2088.00
1824.55,2486.00
1825.63,2102.00
1826.71,2129.00
1827.79,2034.00
1828.87,2609.00
1829.95,1937.00
1831.02,2404.00
1832.10,1953.00
1833.18,2329.00
1834.25,2004.00
1835.33,2296.00
1836.40,1920.00
1837.48,2418.00
1838.55,1868.00
1839.63,2288.00
1840.70,1985.00
1841.77,2295.00
1842.85,1915.00
1843.92,2195.00
1844.99,1928.00
1846.06,2375.00
1847.13,1808.00
1848.20,2178.00
1849.28,1914.00
1850.34,1972.00
1851.41,1876.00
1852.48,2147.00
1853.55,1878.00
1854.62,1968.00
1855.69,1691.00
1856.76,2161.00
1857.82,1690.00
1858.89,2150.00
1859.95,1719.00
1861.02,2176.00
1862.09,1583.00
1863.15,2111.00
1864.21,1664.00
1865.28,1989.00
1866.34,1750.00
1867.41,2215.00
1868.47,1574.00
1869.53,2064.00
1870.59,1614.00
1871.65,2025.00
1872.71,1635.00
1873.78,1954.00
1874.84,1573.00
1875.90,1903.00
1876.96,1717.00
1878.01,1953.00
1879.07,1653.00
1880.13,1997.00
1881.19,1529.00
1882.25,1813.00
1883.30,1635.00
1884.36,1898.00
1885.42,1676.00
1886.47,2038.00
1887.53,1587.00
1888.58,1935.00
1889.64,1712.00
1890.69,1889.00
1891.74,1590.00
1892.80,1894.00
1893.85,1546.00
1894.90,1986.00
1895.96,1498.00
1897.01,2006.00
1898.06,1568.00
1899.11,2046.00
1900.16,1614.00
1901.21,1966.00
1902.26,1459.00
1903.31,1937.00
1904.36,1490.00
1905.41,1887.00
1906.45,1465.00
1907.50,1845.00
1908.55,1626.00
1909.60,1852.00
1910.64,1534.00
1911.69,1807.00
1912.73,1572.00
1913.78,1909.00
1914.82,1489.00
1915.87,1881.00
1916.91,1597.00
1917.96,1858.00
1919.00,1470.00
1920.04,1907.00
1921.08,1677.00
1922.13,1884.00
1923.17,1518.00
1924.21,1768.00
1925.25,1474.00
1926.29,1782.00
1927.33,1530.00
1928.37,1714.00
1929.41,1459.00
1930.45,1749.00
1931.49,1467.00
1932.53,1769.00
1933.56,1445.00
1934.60,1784.00
1935.64,1462.00
1936.67,1824.00
1937.71,1518.00
1938.75,1774.00
1939.78,1564.00
1940.82,1774.00
1941.85,1460.00
1942.89,1813.00
1943.92,1599.00
1944.95,1730.00
1945.99,1462.00
1947.02,1826.00
1948.05,1412.00
1949.08,1798.00
1950.11,1445.00
1951.15,1804.00
1952.18,1387.00
1953.21,1817.00
1954.24,1541.00
1955.27,1920.00
1956.30,1451.00
1957.32,1743.00
1958.35,1459.00
1959.38,1862.00
1960.41,1343.00
1961.44,1764.00
1962.46,1483.00
1963.49,1773.00
1964.51,1325.00
1965.54,1733.00
1966.57,1484.00
1967.59,1907.00
1968.62,1495.00
1969.64,1812.00
1970.66,1515.00
1971.69,1886.00
1972.71,1389.00
1973.73,1775.00
1974.75,1363.00
1975.78,1737.00
1976.80,1470.00
1977.82,1741.00
1978.84,1341.00
1979.86,1759.00
1980.88,1501.00
1981.90,1787.00
1982.92,1500.00
1983.94,1709.00
1984.96,1355.00
1985.98,1714.00
1986.99,1402.00
1988.01,1709.00
1989.03,1455.00
1990.04,1826.00
1991.06,1339.00
1992.08,1784.00
1993.09,1402.00
1994.11,1788.00
1995.12,1513.00
1996.14,1808.00
1997.15,1415.00
1998.16,1590.00
1999.18,1463.00
2000.19,1662.00
2001.20,1318.00
2002.21,1676.00
2003.23,1454.00
2004.24,1919.00
2005.25,1347.00
2006.26,1757.00
2007.27,1335.00
2008.28,1763.00
2009.29,1409.00
2010.30,1719.00
2011.31,1419.00
2012.32,1672.00
2013.32,1299.00
2014.33,1742.00
