ENLIGHTEN Version,1.7.2
Measurement ID,20190716-221830-127462-WP-00438
Serial Number,WP-00438
Label,cyclohexane 4mm HDPE
Integration Time,2000
Timestamp,2019-07-16 22:18:30.127462
Note,
Temperature,-99
CCD C0,807.1400146484375
CCD C1,0.11761099845170975
CCD C2,-1.6414700439781882e-05
CCD C3,2.3293600381890656e-09
CCD Offset,0
CCD Gain,8.0
Laser Wavelength,785.0
Laser Enable,True
Laser Power,100.0
Laser Temperature,-99
Pixel Count,1952

Wavenumber,Processed
349.43,0.00
351.23,0.00
353.04,0.00
354.84,6980.00
356.64,5968.00
358.44,7068.00
360.24,5926.00
362.04,7073.00
363.84,6253.00
365.64,7184.00
367.43,6135.00
369.23,7037.00
371.02,6124.00
372.81,6984.00
374.60,6121.00
376.39,6966.00
378.18,6040.00
379.97,7142.00
381.76,6157.00
383.55,7056.00
385.33,5813.00
387.11,6844.00
388.90,5792.00
390.68,6873.00
392.46,5915.00
394.24,7078.00
396.02,5943.00
397.80,7045.00
399.58,6103.00
401.35,7002.00
403.13,5811.00
404.90,7013.00
406.68,5959.00
408.45,7010.00
410.22,6035.00
411.99,6917.00
413.76,5939.00
415.53,7046.00
417.30,5863.00
419.06,6943.00
420.83,5987.00
422.59,6869.00
424.35,6118.00
426.12,7128.00
427.88,6168.00
429.64,7048.00
431.40,5963.00
433.16,6894.00
434.91,6027.00
436.67,6706.00
438.43,5957.00
440.18,6827.00
441.93,6033.00
443.69,6899.00
445.44,5971.00
447.19,6837.00
448.94,5905.00
450.69,6905.00
452.43,5783.00
454.18,6839.00
455.92,5775.00
457.67,6889.00
459.41,5599.00
461.16,6511.00
462.90,5815.00
464.64,6551.00
466.38,5784.00
468.12,6418.00
469.85,5777.00
471.59,6536.00
473.33,5547.00
475.06,6518.00
476.80,5445.00
478.53,6499.00
480.26,5595.00
481.99,6469.00
483.72,5471.00
485.45,6667.00
487.18,5546.00
488.91,6290.00
490.63,5470.00
492.36,6249.00
494.08,5414.00
495.80,6177.00
497.53,5316.00
499.25,6402.00
500.97,5378.00
502.69,6275.00
504.41,5342.00
506.12,6275.00
507.84,5188.00
509.56,6155.00
511.27,5150.00
512.98,6134.00
514.70,5220.00
516.41,6200.00
518.12,5163.00
519.83,6051.00
521.54,5347.00
523.25,6103.00
524.95,5079.00
526.66,5983.00
528.36,5146.00
530.07,5963.00
531.77,5158.00
533.47,6057.00
535.18,5238.00
536.88,6079.00
538.58,5073.00
540.27,6064.00
541.97,5023.00
543.67,5899.00
545.36,5114.00
547.06,6051.00
548.75,5192.00
550.45,6059.00
552.14,5176.00
553.83,5793.00
555.52,5209.00
557.21,5805.00
558.90,5169.00
560.58,6083.00
562.27,5131.00
563.96,5955.00
565.64,5064.00
567.32,5837.00
569.01,5045.00
570.69,5645.00
572.37,5028.00
574.05,5958.00
575.73,4844.00
577.41,5693.00
579.08,4877.00
580.76,5693.00
582.44,4931.00
584.11,5766.00
585.78,5068.00
587.46,5744.00
589.13,5049.00
590.80,5890.00
592.47,5010.00
594.14,5826.00
595.81,5241.00
597.47,5734.00
599.14,5135.00
600.80,5726.00
602.47,5000.00
604.13,5642.00
605.79,4941.00
607.46,5769.00
609.12,4816.00
610.78,5791.00
612.44,4945.00
614.09,5808.00
615.75,4919.00
617.41,6065.00
619.06,4854.00
620.72,5669.00
622.37,4932.00
624.02,5797.00
625.67,4951.00
627.33,5696.00
628.97,4777.00
630.62,5824.00
632.27,4858.00
633.92,5670.00
635.57,4903.00
637.21,5598.00
638.86,4720.00
640.50,5326.00
642.14,4842.00
643.78,5309.00
645.42,4730.00
647.06,5717.00
648.70,4899.00
650.34,5447.00
651.98,4638.00
653.62,5266.00
655.25,4840.00
656.89,5464.00
658.52,4620.00
660.15,5442.00
661.79,4498.00
663.42,5366.00
665.05,4454.00
666.68,5165.00
668.31,4563.00
669.93,5271.00
671.56,4577.00
673.19,5311.00
674.81,4509.00
676.43,5209.00
678.06,4455.00
679.68,5186.00
681.30,4476.00
682.92,5157.00
684.54,4479.00
686.16,5235.00
687.78,4630.00
689.40,5166.00
691.01,4363.00
692.63,4996.00
694.24,4420.00
695.86,5167.00
697.47,4392.00
699.08,5129.00
700.69,4520.00
702.30,5181.00
703.91,4288.00
705.52,5304.00
707.13,4660.00
708.74,5111.00
710.34,4442.00
711.95,5181.00
713.55,4514.00
715.15,4997.00
716.76,4483.00
718.36,5275.00
719.96,4437.00
721.56,5230.00
723.16,4536.00
724.76,5101.00
726.35,4517.00
727.95,5378.00
729.55,4585.00
731.14,5190.00
732.73,4483.00
734.33,5092.00
735.92,4668.00
737.51,5354.00
739.10,4546.00
740.69,5444.00
742.28,4558.00
743.87,5409.00
745.46,4516.00
747.04,5074.00
748.63,4532.00
750.21,5247.00
751.80,4542.00
753.38,5199.00
754.96,4710.00
756.54,5358.00
758.12,4603.00
759.70,5432.00
761.28,4614.00
762.86,5294.00
764.44,4701.00
766.01,5324.00
767.59,4530.00
769.16,5362.00
770.74,4699.00
772.31,5317.00
773.88,4642.00
775.45,5220.00
777.02,4785.00
778.59,5552.00
780.16,4660.00
781.73,5439.00
783.30,4705.00
784.86,5928.00
786.43,4899.00
787.99,5702.00
789.56,4890.00
791.12,5802.00
792.68,5053.00
794.24,5750.00
795.80,5133.00
797.36,5783.00
798.92,5034.00
800.48,5923.00
802.04,5076.00
803.59,6012.00
805.15,5284.00
806.70,5816.00
808.26,5167.00
809.81,5837.00
811.36,5175.00
812.91,5900.00
814.46,5087.00
816.01,5847.00
817.56,5237.00
819.11,5757.00
820.66,5131.00
822.20,5842.00
823.75,5117.00
825.30,6033.00
826.84,5136.00
828.38,5947.00
829.93,5238.00
831.47,5929.00
833.01,5205.00
834.55,6285.00
836.09,5217.00
837.63,6037.00
839.16,5216.00
840.70,6031.00
842.24,5188.00
843.77,6014.00
845.31,5406.00
846.84,6256.00
848.37,5298.00
849.90,6213.00
851.44,5547.00
852.97,6308.00
854.50,5457.00
856.03,6377.00
857.55,5389.00
859.08,6347.00
860.61,5426.00
862.13,6381.00
863.66,5601.00
865.18,6480.00
866.70,5551.00
868.23,6571.00
869.75,5580.00
871.27,6345.00
872.79,5469.00
874.31,6485.00
875.83,5875.00
877.35,6497.00
878.86,5537.00
880.38,6526.00
881.89,5649.00
883.41,6610.00
884.92,5691.00
886.44,6445.00
887.95,5802.00
889.46,6386.00
890.97,5361.00
892.48,6436.00
893.99,5356.00
895.50,6369.00
897.01,5744.00
898.51,6495.00
900.02,5598.00
901.52,6400.00
903.03,5581.00
904.53,6335.00
906.04,5273.00
907.54,6276.00
909.04,5533.00
910.54,6188.00
912.04,5278.00
913.54,6065.00
915.04,5375.00
916.53,6087.00
918.03,5063.00
919.53,6083.00
921.02,5180.00
922.52,5932.00
924.01,5224.00
925.50,5857.00
927.00,5263.00
928.49,6046.00
929.98,5141.00
931.47,5832.00
932.96,4907.00
934.44,5659.00
935.93,4952.00
937.42,5625.00
938.90,4773.00
940.39,5704.00
941.87,4864.00
943.36,5829.00
944.84,4771.00
946.32,5423.00
947.80,4975.00
949.29,5820.00
950.77,4710.00
952.24,5805.00
953.72,4902.00
955.20,5420.00
956.68,4634.00
958.15,5605.00
959.63,4698.00
961.10,5490.00
962.58,4695.00
964.05,5453.00
965.52,4609.00
967.00,5467.00
968.47,4745.00
969.94,5246.00
971.41,4740.00
972.87,5324.00
974.34,4539.00
975.81,5344.00
977.28,4597.00
978.74,5345.00
980.21,4770.00
981.67,5492.00
983.13,4639.00
984.60,5239.00
986.06,4453.00
987.52,5251.00
988.98,4676.00
990.44,5483.00
991.90,4405.00
993.36,5222.00
994.82,4599.00
996.27,5269.00
997.73,4707.00
999.18,5244.00
1000.64,4636.00
1002.09,5342.00
1003.55,4643.00
1005.00,5550.00
1006.45,4898.00
1007.90,5403.00
1009.35,4833.00
1010.80,5567.00
1012.25,4752.00
1013.70,5400.00
1015.14,4713.00
1016.59,5434.00
1018.04,4924.00
1019.48,5608.00
1020.93,4820.00
1022.37,5494.00
1023.81,5038.00
1025.25,5807.00
1026.70,4994.00
1028.14,5844.00
1029.58,5280.00
1031.02,6000.00
1032.45,5559.00
1033.89,6591.00
1035.33,6155.00
1036.77,7523.00
1038.20,7290.00
1039.64,8495.00
1041.07,8240.00
1042.50,8951.00
1043.94,8674.00
1045.37,9794.00
1046.80,9112.00
1048.23,9519.00
1049.66,8854.00
1051.09,9791.00
1052.52,9021.00
1053.95,9869.00
1055.37,9062.00
1056.80,10055.00
1058.23,9303.00
1059.65,10377.00
1061.08,9212.00
1062.50,10091.00
1063.92,9134.00
1065.34,9996.00
1066.76,8758.00
1068.19,9486.00
1069.61,8534.00
1071.02,9340.00
1072.44,8240.00
1073.86,8607.00
1075.28,7625.00
1076.69,8313.00
1078.11,7230.00
1079.53,8031.00
1080.94,7069.00
1082.35,8054.00
1083.77,6819.00
1085.18,7639.00
1086.59,6680.00
1088.00,7212.00
1089.41,6406.00
1090.82,7172.00
1092.23,6193.00
1093.64,7178.00
1095.04,6357.00
1096.45,7326.00
1097.86,6646.00
1099.26,7544.00
1100.67,7562.00
1102.07,8503.00
1103.47,8253.00
1104.88,9423.00
1106.28,9008.00
1107.68,10533.00
1109.08,9964.00
1110.48,10994.00
1111.88,10605.00
1113.28,11458.00
1114.67,10614.00
1116.07,11180.00
1117.47,10131.00
1118.86,10815.00
1120.26,9878.00
1121.65,10731.00
1123.05,9786.00
1124.44,10819.00
1125.83,10064.00
1127.22,10889.00
1128.61,9921.00
1130.00,10767.00
1131.39,9758.00
1132.78,10256.00
1134.17,9201.00
1135.56,9718.00
1136.94,8616.00
1138.33,9327.00
1139.72,8391.00
1141.10,8835.00
1142.48,7824.00
1143.87,8616.00
1145.25,7808.00
1146.63,8336.00
1148.01,7491.00
1149.39,8075.00
1150.77,7265.00
1152.15,7813.00
1153.53,6864.00
1154.91,7702.00
1156.29,6691.00
1157.66,7149.00
1159.04,6228.00
1160.41,7106.00
1161.79,6459.00
1163.16,7002.00
1164.54,6280.00
1165.91,6892.00
1167.28,6209.00
1168.65,6882.00
1170.02,5920.00
1171.39,6898.00
1172.76,5941.00
1174.13,6480.00
1175.50,5891.00
1176.86,6373.00
1178.23,5754.00
1179.60,6489.00
1180.96,5825.00
1182.33,6177.00
1183.69,5573.00
1185.05,5920.00
1186.42,5458.00
1187.78,6202.00
1189.14,5412.00
1190.50,5988.00
1191.86,5321.00
1193.22,5982.00
1194.58,5364.00
1195.94,5741.00
1197.29,5250.00
1198.65,5980.00
1200.01,5270.00
1201.36,5695.00
1202.72,5312.00
1204.07,5659.00
1205.42,5237.00
1206.78,5628.00
1208.13,5097.00
1209.48,5876.00
1210.83,5058.00
1212.18,5723.00
1213.53,4983.00
1214.88,5557.00
1216.23,4966.00
1217.58,5655.00
1218.92,4955.00
1220.27,5770.00
1221.61,5033.00
1222.96,5511.00
1224.30,4713.00
1225.65,5467.00
1226.99,4975.00
1228.33,5263.00
1229.67,4832.00
1231.01,5480.00
1232.36,4954.00
1233.70,5464.00
1235.03,5050.00
1236.37,5622.00
1237.71,5060.00
1239.05,5582.00
1240.38,4855.00
1241.72,5642.00
1243.06,4894.00
1244.39,5638.00
1245.72,5114.00
1247.06,5637.00
1248.39,5103.00
1249.72,5722.00
1251.05,5091.00
1252.39,5580.00
1253.72,5239.00
1255.05,5980.00
1256.37,5349.00
1257.70,5747.00
1259.03,5378.00
1260.36,6144.00
1261.68,5762.00
1263.01,6415.00
1264.33,5786.00
1265.66,7070.00
1266.98,6696.00
1268.31,7825.00
1269.63,7819.00
1270.95,9141.00
1272.27,9105.00
1273.59,10679.00
1274.91,10265.00
1276.23,11448.00
1277.55,10893.00
1278.87,11898.00
1280.19,11055.00
1281.51,11751.00
1282.82,10703.00
1284.14,11177.00
1285.45,10741.00
1286.77,11182.00
1288.08,10470.00
1289.39,10841.00
1290.71,10763.00
1292.02,11293.00
1293.33,11084.00
1294.64,11476.00
1295.95,11087.00
1297.26,11166.00
1298.57,10672.00
1299.88,11257.00
1301.19,9973.00
1302.49,10381.00
1303.80,9085.00
1305.11,9474.00
1306.41,8404.00
1307.72,8891.00
1309.02,7949.00
1310.32,8095.00
1311.63,7406.00
1312.93,7548.00
1314.23,6793.00
1315.53,7181.00
1316.83,6070.00
1318.13,6529.00
1319.43,5918.00
1320.73,6204.00
1322.03,5403.00
1323.32,6012.00
1324.62,5029.00
1325.92,5655.00
1327.21,5058.00
1328.51,5441.00
1329.80,4657.00
1331.10,5326.00
1332.39,4644.00
1333.68,5044.00
1334.97,4398.00
1336.27,5020.00
1337.56,4271.00
1338.85,4924.00
1340.14,4290.00
1341.42,4951.00
1342.71,4284.00
1344.00,5052.00
1345.29,4290.00
1346.57,5291.00
1347.86,4478.00
1349.15,4953.00
1350.43,4463.00
1351.71,5164.00
1353.00,4405.00
1354.28,5152.00
1355.56,4487.00
1356.85,5117.00
1358.13,4502.00
1359.41,5194.00
1360.69,4520.00
1361.97,4881.00
1363.25,4473.00
1364.52,5182.00
1365.80,4477.00
1367.08,5105.00
1368.35,4496.00
1369.63,4997.00
1370.91,4417.00
1372.18,5108.00
1373.45,4420.00
1374.73,5091.00
1376.00,4417.00
1377.27,5066.00
1378.54,4580.00
1379.82,5241.00
1381.09,4497.00
1382.36,4909.00
1383.63,4421.00
1384.89,5038.00
1386.16,4845.00
1387.43,5559.00
1388.70,5039.00
1389.96,5846.00
1391.23,5398.00
1392.50,6170.00
1393.76,5963.00
1395.02,6881.00
1396.29,6440.00
1397.55,7148.00
1398.81,6928.00
1400.08,7727.00
1401.34,7203.00
1402.60,8096.00
1403.86,7544.00
1405.12,8295.00
1406.38,8080.00
1407.63,8626.00
1408.89,8187.00
1410.15,9456.00
1411.41,9313.00
1412.66,10428.00
1413.92,10461.00
1415.17,11740.00
1416.43,11392.00
1417.68,13032.00
1418.93,12877.00
1420.19,14021.00
1421.44,13835.00
1422.69,14677.00
1423.94,14383.00
1425.19,15287.00
1426.44,14751.00
1427.69,15248.00
1428.94,14846.00
1430.19,15531.00
1431.43,14955.00
1432.68,15689.00
1433.93,15349.00
1435.17,16197.00
1436.42,15773.00
1437.66,16305.00
1438.91,16060.00
1440.15,17059.00
1441.39,16716.00
1442.64,17414.00
1443.88,16462.00
1445.12,17047.00
1446.36,16042.00
1447.60,16794.00
1448.84,15912.00
1450.08,16262.00
1451.32,15573.00
1452.56,15541.00
1453.79,14306.00
1455.03,14689.00
1456.27,13644.00
1457.50,13828.00
1458.74,12882.00
1459.97,13245.00
1461.21,12389.00
1462.44,12767.00
1463.67,11671.00
1464.91,11930.00
1466.14,10951.00
1467.37,11404.00
1468.60,10295.00
1469.83,10398.00
1471.06,9673.00
1472.29,9865.00
1473.52,9025.00
1474.75,9054.00
1475.97,8373.00
1477.20,8533.00
1478.43,7826.00
1479.65,8041.00
1480.88,7142.00
1482.10,7311.00
1483.33,6815.00
1484.55,6807.00
1485.77,6316.00
1487.00,6711.00
1488.22,5931.00
1489.44,6252.00
1490.66,5691.00
1491.88,5869.00
1493.10,5236.00
1494.32,5683.00
1495.54,5127.00
1496.76,5328.00
1497.97,4871.00
1499.19,5330.00
1500.41,4698.00
1501.62,5139.00
1502.84,4543.00
1504.05,5192.00
1505.27,4486.00
1506.48,4822.00
1507.70,4365.00
1508.91,4895.00
1510.12,4325.00
1511.33,4844.00
1512.54,4161.00
1513.75,4766.00
1514.96,4078.00
1516.17,4646.00
1517.38,4040.00
1518.59,4578.00
1519.80,4030.00
1521.01,4460.00
1522.21,3786.00
1523.42,4521.00
1524.63,3826.00
1525.83,4369.00
1527.04,3947.00
1528.24,4219.00
1529.44,3812.00
1530.65,4502.00
1531.85,3834.00
1533.05,4295.00
1534.25,3628.00
1535.45,4129.00
1536.65,3782.00
1537.85,4070.00
1539.05,3749.00
1540.25,4391.00
1541.45,3666.00
1542.65,4238.00
1543.85,3966.00
1545.04,4167.00
1546.24,3645.00
1547.44,3989.00
1548.63,3554.00
1549.83,4027.00
1551.02,3603.00
1552.21,3885.00
1553.41,3544.00
1554.60,3993.00
1555.79,3402.00
1556.98,3847.00
1558.17,3378.00
1559.37,3828.00
1560.56,3273.00
1561.74,3890.00
1562.93,3378.00
1564.12,3647.00
1565.31,3351.00
1566.50,3768.00
1567.68,3275.00
1568.87,3827.00
1570.06,3290.00
1571.24,3580.00
1572.43,3111.00
1573.61,3643.00
1574.80,3321.00
1575.98,3828.00
1577.16,3031.00
1578.34,3626.00
1579.53,3347.00
1580.71,3760.00
1581.89,3110.00
1583.07,3728.00
1584.25,3090.00
1585.43,3600.00
1586.61,3126.00
1587.78,3624.00
1588.96,3146.00
1590.14,3679.00
1591.32,3190.00
1592.49,3691.00
1593.67,3149.00
1594.84,3516.00
1596.02,2944.00
1597.19,3352.00
1598.37,3044.00
1599.54,3540.00
1600.71,3097.00
1601.88,3395.00
1603.06,3053.00
1604.23,3482.00
1605.40,3007.00
1606.57,3412.00
1607.74,2897.00
1608.91,3422.00
1610.07,3026.00
1611.24,3608.00
1612.41,2999.00
1613.58,3285.00
1614.74,2934.00
1615.91,3313.00
1617.08,2971.00
1618.24,3534.00
1619.41,3081.00
1620.57,3399.00
1621.73,2900.00
1622.90,3126.00
1624.06,2987.00
1625.22,3507.00
1626.38,3021.00
1627.54,3408.00
1628.70,3001.00
1629.87,3483.00
1631.02,2994.00
1632.18,3450.00
1633.34,2905.00
1634.50,3560.00
1635.66,2778.00
1636.82,3362.00
1637.97,3057.00
1639.13,3258.00
1640.28,3046.00
1641.44,3247.00
1642.59,2877.00
1643.75,3325.00
1644.90,2844.00
1646.06,3466.00
1647.21,2915.00
1648.36,3527.00
1649.51,2900.00
1650.66,3427.00
1651.81,2825.00
1652.97,3399.00
1654.11,2854.00
1655.26,3307.00
1656.41,2826.00
1657.56,3341.00
1658.71,2784.00
1659.86,3243.00
1661.00,2874.00
1662.15,3386.00
1663.30,2767.00
1664.44,3311.00
1665.59,2957.00
1666.73,3221.00
1667.88,2753.00
1669.02,3289.00
1670.16,2804.00
1671.30,3290.00
1672.45,2721.00
1673.59,3318.00
1674.73,2680.00
1675.87,3214.00
1677.01,2771.00
1678.15,3266.00
1679.29,2873.00
1680.43,3416.00
1681.57,2679.00
1682.70,3311.00
1683.84,2824.00
1684.98,3251.00
1686.12,2718.00
1687.25,3261.00
1688.39,2802.00
1689.52,3255.00
1690.66,2898.00
1691.79,3161.00
1692.92,2778.00
1694.06,3413.00
1695.19,2837.00
1696.32,3379.00
1697.45,2986.00
1698.58,3315.00
1699.72,2661.00
1700.85,3211.00
1701.98,2949.00
1703.10,3178.00
1704.23,2803.00
1705.36,3196.00
1706.49,2896.00
1707.62,3380.00
1708.74,2804.00
1709.87,3277.00
1711.00,2940.00
1712.12,3303.00
1713.25,3024.00
1714.37,3231.00
1715.50,2682.00
1716.62,3252.00
1717.74,2859.00
1718.87,3317.00
1719.99,2918.00
1721.11,3276.00
1722.23,2744.00
1723.35,3289.00
1724.47,3001.00
1725.59,3257.00
1726.71,2767.00
1727.83,3263.00
1728.95,2976.00
1730.07,3204.00
1731.19,2725.00
1732.30,3179.00
1733.42,2756.00
1734.54,3154.00
1735.65,2812.00
1736.77,3289.00
1737.88,2826.00
1739.00,3322.00
1740.11,2939.00
1741.23,3292.00
1742.34,2827.00
1743.45,3169.00
1744.56,2910.00
1745.68,3452.00
1746.79,2677.00
1747.90,3246.00
1749.01,2773.00
1750.12,3052.00
1751.23,2773.00
1752.34,3131.00
1753.45,2796.00
1754.55,3190.00
1755.66,2688.00
1756.77,3280.00
1757.88,2656.00
1758.98,3141.00
1760.09,2882.00
1761.19,3107.00
1762.30,2771.00
1763.40,3119.00
1764.51,2659.00
1765.61,3051.00
1766.71,2663.00
1767.82,3045.00
1768.92,2634.00
1770.02,3084.00
1771.12,2593.00
1772.22,3061.00
1773.32,2758.00
1774.42,3117.00
1775.52,2707.00
1776.62,2918.00
1777.72,2484.00
1778.82,2956.00
1779.92,2565.00
1781.01,3135.00
1782.11,2413.00
1783.21,3005.00
1784.30,2503.00
1785.40,2951.00
1786.50,2581.00
1787.59,2949.00
1788.68,2541.00
1789.78,2967.00
1790.87,2500.00
1791.96,2909.00
1793.06,2389.00
1794.15,2894.00
1795.24,2444.00
1796.33,2877.00
1797.42,2489.00
1798.51,2778.00
1799.60,2411.00
1800.69,2824.00
1801.78,2344.00
1802.87,2915.00
1803.96,2295.00
1805.05,2743.00
1806.13,2286.00
1807.22,2734.00
1808.31,2354.00
1809.39,2855.00
1810.48,2243.00
1811.56,2573.00
1812.65,2385.00
1813.73,2765.00
1814.82,2428.00
1815.90,2647.00
1816.98,2064.00
1818.07,2584.00
1819.15,2017.00
1820.23,2575.00
1821.31,2144.00
1822.39,2503.00
1823.47,2105.00
1824.55,2521.00
1825.63,2182.00
1826.71,2450.00
1827.79,2134.00
1828.87,2359.00
1829.95,2069.00
1831.02,2491.00
1832.10,1982.00
1833.18,2429.00
1834.25,1960.00
1835.33,2320.00
1836.40,1924.00
1837.48,2363.00
1838.55,1851.00
1839.63,2295.00
1840.70,1799.00
1841.77,2329.00
1842.85,1926.00
1843.92,2245.00
1844.99,1882.00
1846.06,2166.00
1847.13,1759.00
1848.20,2241.00
1849.28,1818.00
1850.34,2227.00
1851.41,1949.00
1852.48,2235.00
1853.55,1871.00
1854.62,2092.00
1855.69,1815.00
1856.76,2107.00
1857.82,1813.00
1858.89,2171.00
1859.95,1790.00
1861.02,2076.00
1862.09,1730.00
1863.15,2111.00
1864.21,1686.00
1865.28,1940.00
1866.34,1699.00
1867.41,2119.00
1868.47,1634.00
1869.53,1944.00
1870.59,1728.00
1871.65,1987.00
1872.71,1659.00
1873.78,2006.00
1874.84,1568.00
1875.90,2045.00
1876.96,1693.00
1878.01,2035.00
1879.07,1610.00
1880.13,2019.00
1881.19,1610.00
1882.25,1986.00
1883.30,1674.00
1884.36,2002.00
1885.42,1507.00
1886.47,1945.00
1887.53,1672.00
1888.58,1953.00
1889.64,1617.00
1890.69,1940.00
1891.74,1554.00
1892.80,1883.00
1893.85,1623.00
1894.90,1935.00
1895.96,1440.00
1897.01,2077.00
1898.06,1590.00
1899.11,2093.00
1900.16,1629.00
1901.21,1973.00
1902.26,1455.00
1903.31,1932.00
1904.36,1593.00
1905.41,1935.00
1906.45,1569.00
1907.50,1930.00
1908.55,1581.00
1909.60,1962.00
1910.64,1576.00
1911.69,1898.00
1912.73,1579.00
1913.78,1926.00
1914.82,1631.00
1915.87,1858.00
1916.91,1623.00
1917.96,1967.00
1919.00,1433.00
1920.04,1963.00
1921.08,1619.00
1922.13,1944.00
1923.17,1536.00
1924.21,1883.00
1925.25,1429.00
1926.29,1794.00
1927.33,1564.00
1928.37,1844.00
1929.41,1367.00
1930.45,1886.00
1931.49,1605.00
1932.53,1764.00
1933.56,1563.00
1934.60,1786.00
1935.64,1504.00
1936.67,1980.00
1937.71,1505.00
1938.75,1788.00
1939.78,1543.00
1940.82,1891.00
1941.85,1362.00
1942.89,1955.00
1943.92,1542.00
1944.95,1806.00
1945.99,1533.00
1947.02,1979.00
1948.05,1505.00
1949.08,1810.00
1950.11,1491.00
1951.15,1764.00
1952.18,1503.00
1953.21,1788.00
1954.24,1507.00
1955.27,1826.00
1956.30,1392.00
1957.32,1839.00
1958.35,1396.00
1959.38,1884.00
1960.41,1429.00
1961.44,1863.00
1962.46,1451.00
1963.49,1832.00
1964.51,1388.00
1965.54,1877.00
1966.57,1410.00
1967.59,1859.00
1968.62,1496.00
1969.64,1870.00
1970.66,1456.00
1971.69,1844.00
1972.71,1485.00
1973.73,1801.00
1974.75,1403.00
1975.78,1752.00
1976.80,1459.00
1977.82,1845.00
1978.84,1414.00
1979.86,1813.00
1980.88,1451.00
1981.90,1862.00
1982.92,1441.00
1983.94,1702.00
1984.96,1432.00
1985.98,1605.00
1986.99,1343.00
1988.01,1802.00
1989.03,1291.00
1990.04,1850.00
1991.06,1354.00
1992.08,1842.00
1993.09,1383.00
1994.11,1816.00
1995.12,1557.00
1996.14,1877.00
1997.15,1307.00
1998.16,1698.00
1999.18,1431.00
2000.19,1752.00
2001.20,1448.00
2002.21,1773.00
2003.23,1421.00
2004.24,1806.00
2005.25,1575.00
2006.26,1742.00
2007.27,1430.00
2008.28,1820.00
2009.29,1403.00
2010.30,1835.00
2011.31,1378.00
