ENLIGHTEN Version,1.7.2
Measurement ID,20190716-221606-798853-WP-00438
Serial Number,WP-00438
Label,ethanol 2mm HDPE
Integration Time,2000
Timestamp,2019-07-16 22:16:06.798853
Note,
Temperature,-99
CCD C0,807.1400146484375
CCD C1,0.11761099845170975
CCD C2,-1.6414700439781882e-05
CCD C3,2.3293600381890656e-09
CCD Offset,0
CCD Gain,8.0
Laser Wavelength,785.0
Laser Enable,True
Laser Power,100.0
Laser Temperature,-99
Pixel Count,1952

Wavenumber,Processed
349.43,0.00
351.23,0.00
353.04,0.00
354.84,6649.00
356.64,5394.00
358.44,6729.00
360.24,5728.00
362.04,6667.00
363.84,5707.00
365.64,6664.00
367.43,5788.00
369.23,6873.00
371.02,5648.00
372.81,6980.00
374.60,5588.00
376.39,6447.00
378.18,5562.00
379.97,6510.00
381.76,5614.00
383.55,6477.00
385.33,5495.00
387.11,6467.00
388.90,5499.00
390.68,6436.00
392.46,5403.00
394.24,6636.00
396.02,5393.00
397.80,6378.00
399.58,5682.00
401.35,6621.00
403.13,5402.00
404.90,6345.00
406.68,5523.00
408.45,6696.00
410.22,5498.00
411.99,6400.00
413.76,5659.00
415.53,6534.00
417.30,5689.00
419.06,6616.00
420.83,5672.00
422.59,6656.00
424.35,5662.00
426.12,6499.00
427.88,5867.00
429.64,6654.00
431.40,5723.00
433.16,6458.00
434.91,5637.00
436.67,6482.00
438.43,5639.00
440.18,6609.00
441.93,5373.00
443.69,6455.00
445.44,5620.00
447.19,6594.00
448.94,5397.00
450.69,6332.00
452.43,5391.00
454.18,6271.00
455.92,5249.00
457.67,6323.00
459.41,5513.00
461.16,5940.00
462.90,5263.00
464.64,6257.00
466.38,5326.00
468.12,6230.00
469.85,5134.00
471.59,5917.00
473.33,5172.00
475.06,5952.00
476.80,5044.00
478.53,5831.00
480.26,4942.00
481.99,5917.00
483.72,4987.00
485.45,5942.00
487.18,4937.00
488.91,5816.00
490.63,4863.00
492.36,5302.00
494.08,4889.00
495.80,5648.00
497.53,4939.00
499.25,5579.00
500.97,4654.00
502.69,5471.00
504.41,4596.00
506.12,5594.00
507.84,4778.00
509.56,5449.00
511.27,4636.00
512.98,5781.00
514.70,4826.00
516.41,5577.00
518.12,4604.00
519.83,5500.00
521.54,4477.00
523.25,5338.00
524.95,4610.00
526.66,5542.00
528.36,4546.00
530.07,5168.00
531.77,4490.00
533.47,5434.00
535.18,4616.00
536.88,5475.00
538.58,4426.00
540.27,5559.00
541.97,4477.00
543.67,5459.00
545.36,4370.00
547.06,5315.00
548.75,4530.00
550.45,5227.00
552.14,4305.00
553.83,5103.00
555.52,4395.00
557.21,5036.00
558.90,4525.00
560.58,5233.00
562.27,4506.00
563.96,5280.00
565.64,4543.00
567.32,5248.00
569.01,4374.00
570.69,5115.00
572.37,4332.00
574.05,5322.00
575.73,4454.00
577.41,5168.00
579.08,4491.00
580.76,5154.00
582.44,4407.00
584.11,5064.00
585.78,4248.00
587.46,4937.00
589.13,4360.00
590.80,5227.00
592.47,4215.00
594.14,5093.00
595.81,4331.00
597.47,5043.00
599.14,4252.00
600.80,5029.00
602.47,4263.00
604.13,5148.00
605.79,4508.00
607.46,4958.00
609.12,4451.00
610.78,4950.00
612.44,4130.00
614.09,5001.00
615.75,4364.00
617.41,4927.00
619.06,4380.00
620.72,4909.00
622.37,4089.00
624.02,4896.00
625.67,4448.00
627.33,5062.00
628.97,4183.00
630.62,4987.00
632.27,4301.00
633.92,5091.00
635.57,4249.00
637.21,4761.00
638.86,4240.00
640.50,4928.00
642.14,4205.00
643.78,5108.00
645.42,4077.00
647.06,4894.00
648.70,4085.00
650.34,4805.00
651.98,3982.00
653.62,4733.00
655.25,4173.00
656.89,4734.00
658.52,4002.00
660.15,4584.00
661.79,3888.00
663.42,4690.00
665.05,3989.00
666.68,4458.00
668.31,4064.00
669.93,4591.00
671.56,3988.00
673.19,4512.00
674.81,3827.00
676.43,4554.00
678.06,3881.00
679.68,4623.00
681.30,3944.00
682.92,4475.00
684.54,3842.00
686.16,4476.00
687.78,4015.00
689.40,4479.00
691.01,4041.00
692.63,4552.00
694.24,3904.00
695.86,4670.00
697.47,3820.00
699.08,4563.00
700.69,3894.00
702.30,4546.00
703.91,3592.00
705.52,4407.00
707.13,3671.00
708.74,4461.00
710.34,3909.00
711.95,4640.00
713.55,3942.00
715.15,4641.00
716.76,3877.00
718.36,4375.00
719.96,3804.00
721.56,4640.00
723.16,3678.00
724.76,4526.00
726.35,3923.00
727.95,4458.00
729.55,3959.00
731.14,4685.00
732.73,3874.00
734.33,4504.00
735.92,3824.00
737.51,4525.00
739.10,3770.00
740.69,4736.00
742.28,3757.00
743.87,4611.00
745.46,3729.00
747.04,4431.00
748.63,3801.00
750.21,4357.00
751.80,3755.00
753.38,4522.00
754.96,3999.00
756.54,4624.00
758.12,3741.00
759.70,4585.00
761.28,3979.00
762.86,4665.00
764.44,3804.00
766.01,4716.00
767.59,3997.00
769.16,4926.00
770.74,3998.00
772.31,4683.00
773.88,4031.00
775.45,4690.00
777.02,3942.00
778.59,4541.00
780.16,4127.00
781.73,4839.00
783.30,4015.00
784.86,4634.00
786.43,4107.00
787.99,4753.00
789.56,4154.00
791.12,4737.00
792.68,4209.00
794.24,4871.00
795.80,4105.00
797.36,4750.00
798.92,4089.00
800.48,4917.00
802.04,4137.00
803.59,4856.00
805.15,4283.00
806.70,4829.00
808.26,4242.00
809.81,4761.00
811.36,4006.00
812.91,5003.00
814.46,4088.00
816.01,5144.00
817.56,4397.00
819.11,5101.00
820.66,4334.00
822.20,5101.00
823.75,4426.00
825.30,4955.00
826.84,4365.00
828.38,5129.00
829.93,4500.00
831.47,5118.00
833.01,4204.00
834.55,5100.00
836.09,4504.00
837.63,5036.00
839.16,4474.00
840.70,5245.00
842.24,4529.00
843.77,5077.00
845.31,4591.00
846.84,5381.00
848.37,4522.00
849.90,5461.00
851.44,4942.00
852.97,5420.00
854.50,4765.00
856.03,5427.00
857.55,4859.00
859.08,5687.00
860.61,4888.00
862.13,5713.00
863.66,4877.00
865.18,5782.00
866.70,5195.00
868.23,5892.00
869.75,5326.00
871.27,6168.00
872.79,5569.00
874.31,6456.00
875.83,5756.00
877.35,6290.00
878.86,5707.00
880.38,6301.00
881.89,5743.00
883.41,6710.00
884.92,5663.00
886.44,6518.00
887.95,5588.00
889.46,6180.00
890.97,5348.00
892.48,6023.00
893.99,5396.00
895.50,6092.00
897.01,5111.00
898.51,5990.00
900.02,5055.00
901.52,5753.00
903.03,4937.00
904.53,5684.00
906.04,4622.00
907.54,5335.00
909.04,4765.00
910.54,5512.00
912.04,4490.00
913.54,5219.00
915.04,4655.00
916.53,5335.00
918.03,4762.00
919.53,5331.00
921.02,4545.00
922.52,5110.00
924.01,4526.00
925.50,5036.00
927.00,4401.00
928.49,5186.00
929.98,4305.00
931.47,5044.00
932.96,4398.00
934.44,5124.00
935.93,4137.00
937.42,4751.00
938.90,4151.00
940.39,4922.00
941.87,4044.00
943.36,4980.00
944.84,4136.00
946.32,4825.00
947.80,4196.00
949.29,4820.00
950.77,4112.00
952.24,4801.00
953.72,4080.00
955.20,4825.00
956.68,3935.00
958.15,4632.00
959.63,3964.00
961.10,4599.00
962.58,4083.00
964.05,4591.00
965.52,3998.00
967.00,4758.00
968.47,3909.00
969.94,4654.00
971.41,3968.00
972.87,4806.00
974.34,3971.00
975.81,4666.00
977.28,4023.00
978.74,4651.00
980.21,4038.00
981.67,4866.00
983.13,4103.00
984.60,4350.00
986.06,3984.00
987.52,4631.00
988.98,3956.00
990.44,4681.00
991.90,4001.00
993.36,4764.00
994.82,3968.00
996.27,4607.00
997.73,3973.00
999.18,4640.00
1000.64,4078.00
1002.09,4739.00
1003.55,4177.00
1005.00,4658.00
1006.45,4053.00
1007.90,4634.00
1009.35,3919.00
1010.80,4889.00
1012.25,4121.00
1013.70,4713.00
1015.14,4198.00
1016.59,4706.00
1018.04,4067.00
1019.48,4668.00
1020.93,4179.00
1022.37,4916.00
1023.81,4328.00
1025.25,4744.00
1026.70,4310.00
1028.14,4927.00
1029.58,4373.00
1031.02,5162.00
1032.45,4721.00
1033.89,5672.00
1035.33,5100.00
1036.77,6187.00
1038.20,5825.00
1039.64,7140.00
1041.07,6497.00
1042.50,7953.00
1043.94,7310.00
1045.37,8290.00
1046.80,7584.00
1048.23,8165.00
1049.66,7489.00
1051.09,8392.00
1052.52,7398.00
1053.95,8026.00
1055.37,7246.00
1056.80,7945.00
1058.23,7382.00
1059.65,8139.00
1061.08,7196.00
1062.50,8200.00
1063.92,7180.00
1065.34,7760.00
1066.76,6998.00
1068.19,7763.00
1069.61,6835.00
1071.02,7282.00
1072.44,6402.00
1073.86,7028.00
1075.28,6273.00
1076.69,6523.00
1078.11,6337.00
1079.53,6662.00
1080.94,5811.00
1082.35,6553.00
1083.77,5799.00
1085.18,6282.00
1086.59,5607.00
1088.00,6288.00
1089.41,5540.00
1090.82,6218.00
1092.23,5548.00
1093.64,6049.00
1095.04,5525.00
1096.45,6156.00
1097.86,5584.00
1099.26,6707.00
1100.67,6065.00
1102.07,7213.00
1103.47,7010.00
1104.88,7980.00
1106.28,7675.00
1107.68,8718.00
1109.08,8228.00
1110.48,9356.00
1111.88,8812.00
1113.28,9456.00
1114.67,8677.00
1116.07,9313.00
1117.47,8374.00
1118.86,8691.00
1120.26,7933.00
1121.65,8711.00
1123.05,7987.00
1124.44,8507.00
1125.83,7598.00
1127.22,8260.00
1128.61,7543.00
1130.00,8326.00
1131.39,7287.00
1132.78,7976.00
1134.17,6860.00
1135.56,7721.00
1136.94,6742.00
1138.33,7427.00
1139.72,6479.00
1141.10,6792.00
1142.48,6116.00
1143.87,6817.00
1145.25,6052.00
1146.63,6590.00
1148.01,5838.00
1149.39,6775.00
1150.77,5741.00
1152.15,6704.00
1153.53,5662.00
1154.91,6059.00
1156.29,5294.00
1157.66,6166.00
1159.04,5137.00
1160.41,5848.00
1161.79,5227.00
1163.16,5738.00
1164.54,5095.00
1165.91,5685.00
1167.28,5071.00
1168.65,5727.00
1170.02,5140.00
1171.39,5647.00
1172.76,5126.00
1174.13,5710.00
1175.50,4872.00
1176.86,5558.00
1178.23,4961.00
1179.60,5366.00
1180.96,4859.00
1182.33,5303.00
1183.69,4726.00
1185.05,5194.00
1186.42,4759.00
1187.78,5449.00
1189.14,4731.00
1190.50,5281.00
1191.86,4737.00
1193.22,5190.00
1194.58,4604.00
1195.94,5080.00
1197.29,4668.00
1198.65,5255.00
1200.01,4443.00
1201.36,5037.00
1202.72,4486.00
1204.07,5138.00
1205.42,4674.00
1206.78,5104.00
1208.13,4257.00
1209.48,5048.00
1210.83,4490.00
1212.18,5145.00
1213.53,4414.00
1214.88,5138.00
1216.23,4432.00
1217.58,4956.00
1218.92,4254.00
1220.27,5165.00
1221.61,4426.00
1222.96,4753.00
1224.30,4300.00
1225.65,4986.00
1226.99,4482.00
1228.33,4965.00
1229.67,4343.00
1231.01,4954.00
1232.36,4395.00
1233.70,4999.00
1235.03,4428.00
1236.37,4863.00
1237.71,4427.00
1239.05,4874.00
1240.38,4468.00
1241.72,4833.00
1243.06,4352.00
1244.39,5109.00
1245.72,4506.00
1247.06,5053.00
1248.39,4583.00
1249.72,4922.00
1251.05,4519.00
1252.39,5111.00
1253.72,4570.00
1255.05,5279.00
1256.37,4653.00
1257.70,5243.00
1259.03,4704.00
1260.36,5551.00
1261.68,4891.00
1263.01,5721.00
1264.33,5136.00
1265.66,6056.00
1266.98,5693.00
1268.31,6890.00
1269.63,6459.00
1270.95,7511.00
1272.27,7668.00
1273.59,8769.00
1274.91,8546.00
1276.23,9773.00
1277.55,8991.00
1278.87,9825.00
1280.19,8976.00
1281.51,9850.00
1282.82,8974.00
1284.14,9613.00
1285.45,8747.00
1286.77,9073.00
1288.08,8277.00
1289.39,8814.00
1290.71,7996.00
1292.02,9008.00
1293.33,8322.00
1294.64,8769.00
1295.95,8388.00
1297.26,8699.00
1298.57,8037.00
1299.88,8201.00
1301.19,7572.00
1302.49,8206.00
1303.80,7042.00
1305.11,7549.00
1306.41,6698.00
1307.72,7047.00
1309.02,6295.00
1310.32,6514.00
1311.63,5982.00
1312.93,6190.00
1314.23,5750.00
1315.53,6145.00
1316.83,5247.00
1318.13,5747.00
1319.43,5151.00
1320.73,5580.00
1322.03,4908.00
1323.32,5371.00
1324.62,4724.00
1325.92,5205.00
1327.21,4558.00
1328.51,5015.00
1329.80,4633.00
1331.10,4798.00
1332.39,4419.00
1333.68,4804.00
1334.97,4254.00
1336.27,4822.00
1337.56,4159.00
1338.85,4833.00
1340.14,4299.00
1341.42,4827.00
1342.71,4302.00
1344.00,5081.00
1345.29,4566.00
1346.57,5099.00
1347.86,4425.00
1349.15,4936.00
1350.43,4357.00
1351.71,4768.00
1353.00,4633.00
1354.28,5113.00
1355.56,4619.00
1356.85,5189.00
1358.13,4357.00
1359.41,5306.00
1360.69,4465.00
1361.97,4814.00
1363.25,4513.00
1364.52,4926.00
1365.80,4389.00
1367.08,4984.00
1368.35,4555.00
1369.63,4839.00
1370.91,4552.00
1372.18,4844.00
1373.45,4431.00
1374.73,5143.00
1376.00,4421.00
1377.27,4897.00
1378.54,4506.00
1379.82,5108.00
1381.09,4605.00
1382.36,4958.00
1383.63,4569.00
1384.89,5167.00
1386.16,4684.00
1387.43,5214.00
1388.70,4852.00
1389.96,5546.00
1391.23,5144.00
1392.50,6141.00
1393.76,5659.00
1395.02,6540.00
1396.29,6021.00
1397.55,6956.00
1398.81,6813.00
1400.08,7293.00
1401.34,6785.00
1402.60,7732.00
1403.86,7107.00
1405.12,7817.00
1406.38,7309.00
1407.63,7698.00
1408.89,7418.00
1410.15,8492.00
1411.41,7902.00
1412.66,8901.00
1413.92,8893.00
1415.17,9805.00
1416.43,9831.00
1417.68,10826.00
1418.93,10706.00
1420.19,11777.00
1421.44,11389.00
1422.69,12621.00
1423.94,12052.00
1425.19,12571.00
1426.44,12129.00
1427.69,12851.00
1428.94,12287.00
1430.19,12765.00
1431.43,12140.00
1432.68,12926.00
1433.93,12336.00
1435.17,12666.00
1436.42,12428.00
1437.66,13278.00
1438.91,12636.00
1440.15,13288.00
1441.39,12745.00
1442.64,13558.00
1443.88,12881.00
1445.12,13537.00
1446.36,13069.00
1447.60,13308.00
1448.84,12631.00
1450.08,12842.00
1451.32,11773.00
1452.56,12370.00
1453.79,11577.00
1455.03,11896.00
1456.27,11292.00
1457.50,11330.00
1458.74,10485.00
1459.97,10553.00
1461.21,10029.00
1462.44,10419.00
1463.67,9503.00
1464.91,9729.00
1466.14,9139.00
1467.37,9309.00
1468.60,8434.00
1469.83,8724.00
1471.06,8016.00
1472.29,8228.00
1473.52,7415.00
1474.75,7862.00
1475.97,7177.00
1477.20,7541.00
1478.43,6929.00
1479.65,6990.00
1480.88,6224.00
1482.10,6485.00
1483.33,6247.00
1484.55,6331.00
1485.77,5754.00
1487.00,6125.00
1488.22,5630.00
1489.44,5853.00
1490.66,5224.00
1491.88,5807.00
1493.10,5229.00
1494.32,5667.00
1495.54,4919.00
1496.76,5324.00
1497.97,4783.00
1499.19,5338.00
1500.41,4588.00
1501.62,5146.00
1502.84,4431.00
1504.05,4952.00
1505.27,4655.00
1506.48,4988.00
1507.70,4222.00
1508.91,4665.00
1510.12,4182.00
1511.33,4806.00
1512.54,4267.00
1513.75,4907.00
1514.96,4014.00
1516.17,4516.00
1517.38,3998.00
1518.59,4632.00
1519.80,4175.00
1521.01,4721.00
1522.21,3962.00
1523.42,4487.00
1524.63,3911.00
1525.83,4687.00
1527.04,3873.00
1528.24,4495.00
1529.44,3788.00
1530.65,4402.00
1531.85,3903.00
1533.05,4259.00
1534.25,3548.00
1535.45,4536.00
1536.65,3872.00
1537.85,4216.00
1539.05,3747.00
1540.25,4301.00
1541.45,3892.00
1542.65,4292.00
1543.85,3886.00
1545.04,4197.00
1546.24,3610.00
1547.44,3972.00
1548.63,3612.00
1549.83,4050.00
1551.02,3559.00
1552.21,3827.00
1553.41,3453.00
1554.60,4034.00
1555.79,3316.00
1556.98,3881.00
1558.17,3485.00
1559.37,3942.00
1560.56,3367.00
1561.74,4036.00
1562.93,3353.00
1564.12,3741.00
1565.31,3239.00
1566.50,4052.00
1567.68,3520.00
1568.87,3775.00
1570.06,3301.00
1571.24,3883.00
1572.43,3301.00
1573.61,3752.00
1574.80,3329.00
1575.98,3707.00
1577.16,3077.00
1578.34,3841.00
1579.53,3074.00
1580.71,3926.00
1581.89,3080.00
1583.07,3475.00
1584.25,3111.00
1585.43,3661.00
1586.61,3225.00
1587.78,3637.00
1588.96,3207.00
1590.14,3480.00
1591.32,3031.00
1592.49,3601.00
1593.67,3129.00
1594.84,3523.00
1596.02,3053.00
1597.19,3297.00
1598.37,2936.00
1599.54,3466.00
1600.71,2972.00
1601.88,3523.00
1603.06,2981.00
1604.23,3600.00
1605.40,2939.00
1606.57,3399.00
1607.74,3146.00
1608.91,3469.00
1610.07,2932.00
1611.24,3510.00
1612.41,2900.00
1613.58,3367.00
1614.74,2974.00
1615.91,3459.00
1617.08,2941.00
1618.24,3431.00
1619.41,3009.00
1620.57,3406.00
1621.73,2918.00
1622.90,3503.00
1624.06,3020.00
1625.22,3368.00
1626.38,2909.00
1627.54,3533.00
1628.70,2976.00
1629.87,3543.00
1631.02,2933.00
1632.18,3427.00
1633.34,2952.00
1634.50,3366.00
1635.66,2874.00
1636.82,3540.00
1637.97,3054.00
1639.13,3274.00
1640.28,3027.00
1641.44,3516.00
1642.59,2763.00
1643.75,3277.00
1644.90,3018.00
1646.06,3432.00
1647.21,2943.00
1648.36,3393.00
1649.51,2972.00
1650.66,3453.00
1651.81,3053.00
1652.97,3368.00
1654.11,2695.00
1655.26,3314.00
1656.41,2993.00
1657.56,3252.00
1658.71,2927.00
1659.86,3255.00
1661.00,2913.00
1662.15,3362.00
1663.30,2942.00
1664.44,3279.00
1665.59,2903.00
1666.73,3359.00
1667.88,2779.00
1669.02,3196.00
1670.16,2712.00
1671.30,3149.00
1672.45,2849.00
1673.59,3333.00
1674.73,2935.00
1675.87,3392.00
1677.01,2915.00
1678.15,3264.00
1679.29,3005.00
1680.43,3205.00
1681.57,2862.00
1682.70,3381.00
1683.84,2784.00
1684.98,3274.00
1686.12,2668.00
1687.25,3438.00
1688.39,2755.00
1689.52,3359.00
1690.66,2915.00
1691.79,3360.00
1692.92,2888.00
1694.06,3338.00
1695.19,2889.00
1696.32,3293.00
1697.45,2695.00
1698.58,3274.00
1699.72,2759.00
1700.85,3442.00
1701.98,3034.00
1703.10,3458.00
1704.23,2735.00
1705.36,3337.00
1706.49,2973.00
1707.62,3396.00
1708.74,2863.00
1709.87,3503.00
1711.00,3097.00
1712.12,3372.00
1713.25,2939.00
1714.37,3072.00
1715.50,2969.00
1716.62,3555.00
1717.74,2697.00
1718.87,3354.00
1719.99,3025.00
1721.11,3259.00
1722.23,2869.00
1723.35,3202.00
1724.47,2650.00
1725.59,3331.00
1726.71,2724.00
1727.83,3433.00
1728.95,2853.00
1730.07,3262.00
1731.19,2753.00
1732.30,3162.00
1733.42,2848.00
1734.54,3154.00
1735.65,2873.00
1736.77,3238.00
1737.88,2755.00
1739.00,3294.00
1740.11,2793.00
1741.23,3182.00
1742.34,2796.00
1743.45,3297.00
1744.56,2814.00
1745.68,3247.00
1746.79,2861.00
1747.90,3310.00
1749.01,2872.00
1750.12,3197.00
1751.23,2702.00
1752.34,3104.00
1753.45,2712.00
1754.55,3164.00
1755.66,2786.00
1756.77,3038.00
1757.88,2862.00
1758.98,3141.00
1760.09,2806.00
1761.19,3078.00
1762.30,2743.00
1763.40,3242.00
1764.51,2583.00
1765.61,3121.00
1766.71,2735.00
1767.82,2958.00
1768.92,2636.00
1770.02,3158.00
1771.12,2558.00
1772.22,3097.00
1773.32,2429.00
1774.42,3017.00
1775.52,2594.00
1776.62,2890.00
1777.72,2578.00
1778.82,2995.00
1779.92,2739.00
1781.01,3126.00
1782.11,2406.00
1783.21,3041.00
1784.30,2618.00
1785.40,2940.00
1786.50,2342.00
1787.59,2986.00
1788.68,2576.00
1789.78,2876.00
1790.87,2486.00
1791.96,2909.00
1793.06,2356.00
1794.15,2739.00
1795.24,2313.00
1796.33,2712.00
1797.42,2338.00
1798.51,2772.00
1799.60,2577.00
1800.69,2760.00
1801.78,2287.00
1802.87,2806.00
1803.96,2538.00
1805.05,2500.00
1806.13,2233.00
1807.22,2706.00
1808.31,2150.00
1809.39,2675.00
1810.48,2333.00
1811.56,2597.00
1812.65,2327.00
1813.73,2679.00
1814.82,2194.00
1815.90,2513.00
1816.98,2254.00
1818.07,2668.00
1819.15,2155.00
1820.23,2500.00
1821.31,2176.00
1822.39,2539.00
1823.47,2139.00
1824.55,2561.00
1825.63,2133.00
1826.71,2517.00
1827.79,2173.00
1828.87,2450.00
1829.95,2061.00
1831.02,2445.00
1832.10,1987.00
1833.18,2324.00
1834.25,1991.00
1835.33,2397.00
1836.40,2055.00
1837.48,2238.00
1838.55,1964.00
1839.63,2246.00
1840.70,1872.00
1841.77,2333.00
1842.85,1964.00
1843.92,2333.00
1844.99,1913.00
1846.06,2310.00
1847.13,1766.00
1848.20,2195.00
1849.28,1751.00
1850.34,2372.00
1851.41,1819.00
1852.48,2352.00
1853.55,1816.00
1854.62,2142.00
1855.69,1845.00
1856.76,2106.00
1857.82,1848.00
1858.89,2281.00
1859.95,1745.00
1861.02,2241.00
1862.09,1683.00
1863.15,2130.00
1864.21,1704.00
1865.28,2193.00
1866.34,1739.00
1867.41,2229.00
1868.47,1739.00
1869.53,2188.00
1870.59,1653.00
1871.65,2169.00
1872.71,1769.00
1873.78,2126.00
1874.84,1677.00
1875.90,1918.00
1876.96,1632.00
1878.01,2023.00
1879.07,1610.00
1880.13,1961.00
1881.19,1713.00
1882.25,1903.00
1883.30,1641.00
1884.36,1932.00
1885.42,1631.00
1886.47,1962.00
1887.53,1573.00
1888.58,1918.00
1889.64,1683.00
1890.69,1889.00
1891.74,1575.00
1892.80,1934.00
1893.85,1553.00
1894.90,1851.00
1895.96,1602.00
1897.01,2042.00
1898.06,1629.00
1899.11,1950.00
1900.16,1683.00
1901.21,2046.00
1902.26,1489.00
1903.31,1872.00
1904.36,1480.00
1905.41,1938.00
1906.45,1478.00
1907.50,1888.00
1908.55,1573.00
1909.60,1892.00
1910.64,1592.00
1911.69,2033.00
1912.73,1567.00
1913.78,1853.00
1914.82,1568.00
1915.87,2050.00
1916.91,1659.00
1917.96,1963.00
1919.00,1559.00
1920.04,2004.00
1921.08,1572.00
1922.13,1973.00
1923.17,1572.00
1924.21,1886.00
1925.25,1415.00
1926.29,1935.00
1927.33,1486.00
1928.37,1818.00
1929.41,1400.00
1930.45,1915.00
1931.49,1506.00
1932.53,1795.00
1933.56,1466.00
1934.60,1850.00
1935.64,1547.00
1936.67,1879.00
1937.71,1404.00
1938.75,1875.00
1939.78,1538.00
1940.82,1812.00
1941.85,1506.00
1942.89,1923.00
1943.92,1658.00
1944.95,1871.00
1945.99,1480.00
1947.02,1862.00
1948.05,1532.00
1949.08,1856.00
1950.11,1466.00
1951.15,1723.00
1952.18,1434.00
1953.21,1758.00
1954.24,1429.00
1955.27,1884.00
1956.30,1518.00
1957.32,1896.00
1958.35,1616.00
1959.38,1759.00
1960.41,1452.00
1961.44,1837.00
1962.46,1443.00
1963.49,1909.00
1964.51,1494.00
1965.54,1745.00
1966.57,1382.00
1967.59,1811.00
1968.62,1474.00
1969.64,1786.00
1970.66,1511.00
1971.69,1948.00
1972.71,1409.00
1973.73,1832.00
1974.75,1394.00
1975.78,1844.00
1976.80,1454.00
1977.82,1861.00
1978.84,1433.00
1979.86,1894.00
1980.88,1441.00
1981.90,1770.00
1982.92,1497.00
1983.94,1732.00
1984.96,1399.00
1985.98,1642.00
1986.99,1418.00
1988.01,1670.00
1989.03,1369.00
1990.04,1824.00
1991.06,1458.00
1992.08,1675.00
1993.09,1458.00
1994.11,1720.00
1995.12,1425.00
1996.14,1752.00
1997.15,1436.00
1998.16,1789.00
1999.18,1523.00
2000.19,1807.00
2001.20,1423.00
2002.21,1708.00
2003.23,1379.00
2004.24,1726.00
2005.25,1345.00
2006.26,1682.00
2007.27,1359.00
2008.28,1777.00
2009.29,1325.00
2010.30,1758.00
2011.31,1379.00
2012.32,1628.00
2013.32,1436.00
2014.33,1830.00
