ENLIGHTEN Version,1.7.2
Measurement ID,20190716-221639-311870-WP-00438
Serial Number,WP-00438
Label,ibuprofen 2mm HDPE
Integration Time,2000
Timestamp,2019-07-16 22:16:39.311870
Note,
Temperature,-99
CCD C0,807.1400146484375
CCD C1,0.11761099845170975
CCD C2,-1.6414700439781882e-05
CCD C3,2.3293600381890656e-09
CCD Offset,0
CCD Gain,8.0
Laser Wavelength,785.0
Laser Enable,True
Laser Power,100.0
Laser Temperature,-99
Pixel Count,1952

Wavenumber,Processed
349.43,0.00
351.23,0.00
353.04,0.00
354.84,9050.00
356.64,7828.00
358.44,9172.00
360.24,8135.00
362.04,9438.00
363.84,8059.00
365.64,9220.00
367.43,8485.00
369.23,9502.00
371.02,8245.00
372.81,9414.00
374.60,8077.00
376.39,9114.00
378.18,8190.00
379.97,9354.00
381.76,7990.00
383.55,9350.00
385.33,7972.00
387.11,9043.00
388.90,7806.00
390.68,9147.00
392.46,7788.00
394.24,8811.00
396.02,7671.00
397.80,8853.00
399.58,7972.00
401.35,8924.00
403.13,7837.00
404.90,8785.00
406.68,8019.00
408.45,8922.00
410.22,7826.00
411.99,9026.00
413.76,8262.00
415.53,9388.00
417.30,7991.00
419.06,9363.00
420.83,8111.00
422.59,9174.00
424.35,8019.00
426.12,9090.00
427.88,8059.00
429.64,9162.00
431.40,8085.00
433.16,9145.00
434.91,8172.00
436.67,9159.00
438.43,7897.00
440.18,8942.00
441.93,8016.00
443.69,8969.00
445.44,7767.00
447.19,8848.00
448.94,7855.00
450.69,8647.00
452.43,7642.00
454.18,8478.00
455.92,7672.00
457.67,8716.00
459.41,7398.00
461.16,8199.00
462.90,7544.00
464.64,8238.00
466.38,7342.00
468.12,8321.00
469.85,7314.00
471.59,8199.00
473.33,7277.00
475.06,8306.00
476.80,7371.00
478.53,8308.00
480.26,7214.00
481.99,8099.00
483.72,7483.00
485.45,8270.00
487.18,7332.00
488.91,8108.00
490.63,7545.00
492.36,8431.00
494.08,7253.00
495.80,7936.00
497.53,7230.00
499.25,8382.00
500.97,7235.00
502.69,8194.00
504.41,7131.00
506.12,7983.00
507.84,7224.00
509.56,8302.00
511.27,7288.00
512.98,8031.00
514.70,7236.00
516.41,8025.00
518.12,6947.00
519.83,7849.00
521.54,7069.00
523.25,8068.00
524.95,6954.00
526.66,7584.00
528.36,7045.00
530.07,7708.00
531.77,6918.00
533.47,7510.00
535.18,7169.00
536.88,7707.00
538.58,6963.00
540.27,7904.00
541.97,6757.00
543.67,7692.00
545.36,6783.00
547.06,7539.00
548.75,6709.00
550.45,7767.00
552.14,6734.00
553.83,7448.00
555.52,6736.00
557.21,7714.00
558.90,6750.00
560.58,7651.00
562.27,6630.00
563.96,7726.00
565.64,6630.00
567.32,7541.00
569.01,6862.00
570.69,7702.00
572.37,6831.00
574.05,7656.00
575.73,6649.00
577.41,7566.00
579.08,6825.00
580.76,7482.00
582.44,6747.00
584.11,7805.00
585.78,7021.00
587.46,7654.00
589.13,6753.00
590.80,7675.00
592.47,6680.00
594.14,7642.00
595.81,6998.00
597.47,7724.00
599.14,6851.00
600.80,7573.00
602.47,6948.00
604.13,7619.00
605.79,6792.00
607.46,7472.00
609.12,6704.00
610.78,7491.00
612.44,6753.00
614.09,7713.00
615.75,6890.00
617.41,7833.00
619.06,6858.00
620.72,7723.00
622.37,6866.00
624.02,8197.00
625.67,7155.00
627.33,7888.00
628.97,7099.00
630.62,8084.00
632.27,7223.00
633.92,7931.00
635.57,7147.00
637.21,7866.00
638.86,7136.00
640.50,7683.00
642.14,6826.00
643.78,7708.00
645.42,6885.00
647.06,7511.00
648.70,6708.00
650.34,7333.00
651.98,6710.00
653.62,7421.00
655.25,6693.00
656.89,7282.00
658.52,6632.00
660.15,7298.00
661.79,6644.00
663.42,7301.00
665.05,6535.00
666.68,7247.00
668.31,6236.00
669.93,7101.00
671.56,6294.00
673.19,7069.00
674.81,6146.00
676.43,6975.00
678.06,6124.00
679.68,6819.00
681.30,5996.00
682.92,6786.00
684.54,6291.00
686.16,6808.00
687.78,6044.00
689.40,6598.00
691.01,5877.00
692.63,6797.00
694.24,5921.00
695.86,6803.00
697.47,6051.00
699.08,6704.00
700.69,5893.00
702.30,6758.00
703.91,5995.00
705.52,6786.00
707.13,5993.00
708.74,6525.00
710.34,6008.00
711.95,6815.00
713.55,5908.00
715.15,6707.00
716.76,5983.00
718.36,6862.00
719.96,5973.00
721.56,6751.00
723.16,5849.00
724.76,6707.00
726.35,6066.00
727.95,6626.00
729.55,6242.00
731.14,6903.00
732.73,5998.00
734.33,6921.00
735.92,6350.00
737.51,7364.00
739.10,6424.00
740.69,7074.00
742.28,6148.00
743.87,7275.00
745.46,6383.00
747.04,7172.00
748.63,6661.00
750.21,7343.00
751.80,6392.00
753.38,7574.00
754.96,6593.00
756.54,7485.00
758.12,6478.00
759.70,7437.00
761.28,6581.00
762.86,7220.00
764.44,6746.00
766.01,7310.00
767.59,6752.00
769.16,7483.00
770.74,6733.00
772.31,7903.00
773.88,7080.00
775.45,7837.00
777.02,6880.00
778.59,7776.00
780.16,7273.00
781.73,8209.00
783.30,7094.00
784.86,8108.00
786.43,7372.00
787.99,8145.00
789.56,7270.00
791.12,8029.00
792.68,7420.00
794.24,8104.00
795.80,7200.00
797.36,8113.00
798.92,7030.00
800.48,8169.00
802.04,7366.00
803.59,8036.00
805.15,7405.00
806.70,8273.00
808.26,7480.00
809.81,8621.00
811.36,7728.00
812.91,8712.00
814.46,8112.00
816.01,9127.00
817.56,8410.00
819.11,9422.00
820.66,8593.00
822.20,9527.00
823.75,8675.00
825.30,9790.00
826.84,8721.00
828.38,9854.00
829.93,8961.00
831.47,9874.00
833.01,8892.00
834.55,10044.00
836.09,8971.00
837.63,9794.00
839.16,8963.00
840.70,10030.00
842.24,8893.00
843.77,9870.00
845.31,8803.00
846.84,9406.00
848.37,8261.00
849.90,9642.00
851.44,8362.00
852.97,9182.00
854.50,8132.00
856.03,9080.00
857.55,8276.00
859.08,8918.00
860.61,7859.00
862.13,8497.00
863.66,7563.00
865.18,8772.00
866.70,7826.00
868.23,8830.00
869.75,7935.00
871.27,8745.00
872.79,7580.00
874.31,8596.00
875.83,7890.00
877.35,8625.00
878.86,8029.00
880.38,8782.00
881.89,7961.00
883.41,8666.00
884.92,7757.00
886.44,8913.00
887.95,7525.00
889.46,8847.00
890.97,7742.00
892.48,8464.00
893.99,7368.00
895.50,8287.00
897.01,7390.00
898.51,8493.00
900.02,7589.00
901.52,8272.00
903.03,7510.00
904.53,7986.00
906.04,7211.00
907.54,8076.00
909.04,7308.00
910.54,8151.00
912.04,6927.00
913.54,8207.00
915.04,7207.00
916.53,7837.00
918.03,6972.00
919.53,7957.00
921.02,7028.00
922.52,8027.00
924.01,7197.00
925.50,7733.00
927.00,6942.00
928.49,7962.00
929.98,7230.00
931.47,7790.00
932.96,6845.00
934.44,7820.00
935.93,7024.00
937.42,7857.00
938.90,6695.00
940.39,7881.00
941.87,7233.00
943.36,8038.00
944.84,7204.00
946.32,7750.00
947.80,7012.00
949.29,7731.00
950.77,7002.00
952.24,7751.00
953.72,6930.00
955.20,7704.00
956.68,6910.00
958.15,7810.00
959.63,6702.00
961.10,7447.00
962.58,6616.00
964.05,7367.00
965.52,6787.00
967.00,7326.00
968.47,6522.00
969.94,7306.00
971.41,6548.00
972.87,7212.00
974.34,6451.00
975.81,6995.00
977.28,6322.00
978.74,6926.00
980.21,6229.00
981.67,7148.00
983.13,6237.00
984.60,7174.00
986.06,6410.00
987.52,7111.00
988.98,6505.00
990.44,7211.00
991.90,6617.00
993.36,7244.00
994.82,6559.00
996.27,7575.00
997.73,6700.00
999.18,7395.00
1000.64,6807.00
1002.09,7444.00
1003.55,6755.00
1005.00,7624.00
1006.45,6644.00
1007.90,7550.00
1009.35,6915.00
1010.80,7354.00
1012.25,6835.00
1013.70,7114.00
1015.14,6568.00
1016.59,7361.00
1018.04,6353.00
1019.48,7261.00
1020.93,6391.00
1022.37,7099.00
1023.81,6372.00
1025.25,7206.00
1026.70,6404.00
1028.14,7250.00
1029.58,6587.00
1031.02,7257.00
1032.45,6850.00
1033.89,7901.00
1035.33,7318.00
1036.77,8605.00
1038.20,8170.00
1039.64,9484.00
1041.07,8946.00
1042.50,10410.00
1043.94,9675.00
1045.37,10686.00
1046.80,10100.00
1048.23,10656.00
1049.66,10385.00
1051.09,11097.00
1052.52,10420.00
1053.95,10992.00
1055.37,10199.00
1056.80,11342.00
1058.23,10625.00
1059.65,11292.00
1061.08,10692.00
1062.50,11516.00
1063.92,10627.00
1065.34,11539.00
1066.76,10515.00
1068.19,11082.00
1069.61,9953.00
1071.02,10616.00
1072.44,9619.00
1073.86,10286.00
1075.28,9248.00
1076.69,10014.00
1078.11,9090.00
1079.53,9969.00
1080.94,8826.00
1082.35,9817.00
1083.77,8540.00
1085.18,9280.00
1086.59,8732.00
1088.00,9356.00
1089.41,8251.00
1090.82,9178.00
1092.23,8388.00
1093.64,9204.00
1095.04,8599.00
1096.45,9253.00
1097.86,8497.00
1099.26,9560.00
1100.67,9259.00
1102.07,10508.00
1103.47,9748.00
1104.88,11405.00
1106.28,11217.00
1107.68,12398.00
1109.08,11860.00
1110.48,13276.00
1111.88,12538.00
1113.28,13487.00
1114.67,12734.00
1116.07,13382.00
1117.47,12568.00
1118.86,13085.00
1120.26,12231.00
1121.65,13125.00
1123.05,12380.00
1124.44,13181.00
1125.83,12179.00
1127.22,13095.00
1128.61,11903.00
1130.00,12872.00
1131.39,11854.00
1132.78,12510.00
1134.17,11341.00
1135.56,12130.00
1136.94,10884.00
1138.33,11416.00
1139.72,10470.00
1141.10,10948.00
1142.48,9995.00
1143.87,10521.00
1145.25,9602.00
1146.63,10542.00
1148.01,9565.00
1149.39,10319.00
1150.77,9538.00
1152.15,10212.00
1153.53,9291.00
1154.91,10169.00
1156.29,9099.00
1157.66,10008.00
1159.04,9086.00
1160.41,9938.00
1161.79,9217.00
1163.16,10184.00
1164.54,9693.00
1165.91,10209.00
1167.28,9806.00
1168.65,10567.00
1170.02,9917.00
1171.39,10799.00
1172.76,9884.00
1174.13,10994.00
1175.50,10090.00
1176.86,10970.00
1178.23,10492.00
1179.60,11338.00
1180.96,10686.00
1182.33,11401.00
1183.69,10829.00
1185.05,11591.00
1186.42,10893.00
1187.78,12149.00
1189.14,10879.00
1190.50,11336.00
1191.86,10791.00
1193.22,11308.00
1194.58,10841.00
1195.94,11323.00
1197.29,10031.00
1198.65,10925.00
1200.01,9985.00
1201.36,10675.00
1202.72,9885.00
1204.07,10596.00
1205.42,9526.00
1206.78,10307.00
1208.13,9651.00
1209.48,10100.00
1210.83,9095.00
1212.18,9687.00
1213.53,9046.00
1214.88,9573.00
1216.23,8575.00
1217.58,9236.00
1218.92,8292.00
1220.27,9207.00
1221.61,8434.00
1222.96,8745.00
1224.30,8330.00
1225.65,8740.00
1226.99,8000.00
1228.33,8731.00
1229.67,7813.00
1231.01,8623.00
1232.36,7892.00
1233.70,8428.00
1235.03,7677.00
1236.37,8312.00
1237.71,7700.00
1239.05,8572.00
1240.38,7562.00
1241.72,8332.00
1243.06,7743.00
1244.39,8197.00
1245.72,7820.00
1247.06,8217.00
1248.39,7784.00
1249.72,8486.00
1251.05,8018.00
1252.39,8513.00
1253.72,7993.00
1255.05,8803.00
1256.37,8134.00
1257.70,8785.00
1259.03,7997.00
1260.36,8995.00
1261.68,8322.00
1263.01,9292.00
1264.33,8655.00
1265.66,9849.00
1266.98,9362.00
1268.31,10330.00
1269.63,10265.00
1270.95,11392.00
1272.27,11623.00
1273.59,13033.00
1274.91,12535.00
1276.23,13697.00
1277.55,13527.00
1278.87,14281.00
1280.19,13690.00
1281.51,14307.00
1282.82,13726.00
1284.14,14322.00
1285.45,13332.00
1286.77,14335.00
1288.08,13486.00
1289.39,13893.00
1290.71,13286.00
1292.02,14111.00
1293.33,13748.00
1294.64,14642.00
1295.95,14094.00
1297.26,14568.00
1298.57,13735.00
1299.88,14265.00
1301.19,12967.00
1302.49,13564.00
1303.80,12302.00
1305.11,12904.00
1306.41,11707.00
1307.72,12514.00
1309.02,11277.00
1310.32,11803.00
1311.63,10851.00
1312.93,11343.00
1314.23,10301.00
1315.53,10686.00
1316.83,9926.00
1318.13,10463.00
1319.43,9503.00
1320.73,9965.00
1322.03,9476.00
1323.32,9765.00
1324.62,8992.00
1325.92,9310.00
1327.21,8704.00
1328.51,9191.00
1329.80,8668.00
1331.10,9355.00
1332.39,8694.00
1333.68,9269.00
1334.97,8530.00
1336.27,9057.00
1337.56,8467.00
1338.85,9145.00
1340.14,8710.00
1341.42,9082.00
1342.71,8582.00
1344.00,9288.00
1345.29,8487.00
1346.57,9346.00
1347.86,8471.00
1349.15,9466.00
1350.43,8658.00
1351.71,9246.00
1353.00,8784.00
1354.28,9462.00
1355.56,8603.00
1356.85,9018.00
1358.13,8793.00
1359.41,9389.00
1360.69,8758.00
1361.97,9085.00
1363.25,8556.00
1364.52,9254.00
1365.80,8554.00
1367.08,9263.00
1368.35,8459.00
1369.63,9191.00
1370.91,8576.00
1372.18,9333.00
1373.45,8416.00
1374.73,9216.00
1376.00,8626.00
1377.27,9302.00
1378.54,8542.00
1379.82,9044.00
1381.09,8681.00
1382.36,9306.00
1383.63,8558.00
1384.89,9614.00
1386.16,8967.00
1387.43,9383.00
1388.70,9184.00
1389.96,9810.00
1391.23,9427.00
1392.50,10303.00
1393.76,10084.00
1395.02,11033.00
1396.29,10489.00
1397.55,11437.00
1398.81,11059.00
1400.08,11909.00
1401.34,11465.00
1402.60,12171.00
1403.86,12038.00
1405.12,12557.00
1406.38,12389.00
1407.63,12803.00
1408.89,12576.00
1410.15,13250.00
1411.41,13477.00
1412.66,14581.00
1413.92,14118.00
1415.17,15726.00
1416.43,15599.00
1417.68,16890.00
1418.93,16595.00
1420.19,18271.00
1421.44,17825.00
1422.69,18656.00
1423.94,18224.00
1425.19,19568.00
1426.44,18865.00
1427.69,19432.00
1428.94,18949.00
1430.19,19911.00
1431.43,19070.00
1432.68,20131.00
1433.93,19582.00
1435.17,20424.00
1436.42,19908.00
1437.66,21058.00
1438.91,20487.00
1440.15,21384.00
1441.39,20749.00
1442.64,21706.00
1443.88,20875.00
1445.12,21176.00
1446.36,20799.00
1447.60,21672.00
1448.84,20825.00
1450.08,21119.00
1451.32,20073.00
1452.56,20354.00
1453.79,19449.00
1455.03,19400.00
1456.27,18637.00
1457.50,18552.00
1458.74,17811.00
1459.97,18193.00
1461.21,17278.00
1462.44,17511.00
1463.67,16647.00
1464.91,17058.00
1466.14,15639.00
1467.37,16229.00
1468.60,15233.00
1469.83,15467.00
1471.06,14602.00
1472.29,14707.00
1473.52,13499.00
1474.75,14074.00
1475.97,13265.00
1477.20,13106.00
1478.43,12206.00
1479.65,12702.00
1480.88,11751.00
1482.10,12076.00
1483.33,11181.00
1484.55,11476.00
1485.77,10561.00
1487.00,10986.00
1488.22,10310.00
1489.44,10509.00
1490.66,9984.00
1491.88,10074.00
1493.10,9444.00
1494.32,9940.00
1495.54,9225.00
1496.76,9479.00
1497.97,8954.00
1499.19,9410.00
1500.41,8663.00
1501.62,9223.00
1502.84,8769.00
1504.05,9192.00
1505.27,8684.00
1506.48,9042.00
1507.70,8403.00
1508.91,8938.00
1510.12,8023.00
1511.33,8769.00
1512.54,8021.00
1513.75,8535.00
1514.96,8024.00
1516.17,8357.00
1517.38,7853.00
1518.59,8444.00
1519.80,7798.00
1521.01,8415.00
1522.21,7742.00
1523.42,8463.00
1524.63,7634.00
1525.83,8217.00
1527.04,7618.00
1528.24,8190.00
1529.44,7293.00
1530.65,8068.00
1531.85,7415.00
1533.05,7974.00
1534.25,7278.00
1535.45,7990.00
1536.65,7338.00
1537.85,7830.00
1539.05,7265.00
1540.25,7749.00
1541.45,7255.00
1542.65,7835.00
1543.85,7127.00
1545.04,7822.00
1546.24,7048.00
1547.44,7538.00
1548.63,7175.00
1549.83,7626.00
1551.02,6882.00
1552.21,7431.00
1553.41,6761.00
1554.60,7575.00
1555.79,6792.00
1556.98,7386.00
1558.17,6803.00
1559.37,7470.00
1560.56,6640.00
1561.74,7388.00
1562.93,6732.00
1564.12,7388.00
1565.31,6593.00
1566.50,7273.00
1567.68,6502.00
1568.87,7121.00
1570.06,6392.00
1571.24,7233.00
1572.43,6466.00
1573.61,7051.00
1574.80,6590.00
1575.98,7103.00
1577.16,6487.00
1578.34,7055.00
1579.53,6519.00
1580.71,6947.00
1581.89,6334.00
1583.07,7235.00
1584.25,6290.00
1585.43,7082.00
1586.61,6477.00
1587.78,6995.00
1588.96,6645.00
1590.14,7187.00
1591.32,6806.00
1592.49,7163.00
1593.67,6579.00
1594.84,7350.00
1596.02,6931.00
1597.19,7265.00
1598.37,6925.00
1599.54,7433.00
1600.71,7041.00
1601.88,7201.00
1603.06,6818.00
1604.23,7716.00
1605.40,6993.00
1606.57,7404.00
1607.74,7064.00
1608.91,7611.00
1610.07,7005.00
1611.24,7629.00
1612.41,6940.00
1613.58,7552.00
1614.74,7175.00
1615.91,7674.00
1617.08,7328.00
1618.24,7508.00
1619.41,7067.00
1620.57,7451.00
1621.73,7087.00
1622.90,7567.00
1624.06,6937.00
1625.22,7228.00
1626.38,6473.00
1627.54,7017.00
1628.70,6469.00
1629.87,6920.00
1631.02,6215.00
1632.18,6819.00
1633.34,6062.00
1634.50,6465.00
1635.66,6057.00
1636.82,6579.00
1637.97,6014.00
1639.13,6573.00
1640.28,5892.00
1641.44,6684.00
1642.59,5660.00
1643.75,6216.00
1644.90,5962.00
1646.06,6171.00
1647.21,5920.00
1648.36,5985.00
1649.51,5692.00
1650.66,5986.00
1651.81,5707.00
1652.97,6174.00
1654.11,5490.00
1655.26,6154.00
1656.41,5708.00
1657.56,6007.00
1658.71,5643.00
1659.86,5985.00
1661.00,5685.00
1662.15,6025.00
1663.30,5556.00
1664.44,5832.00
1665.59,5542.00
1666.73,5983.00
1667.88,5397.00
1669.02,6043.00
1670.16,5489.00
1671.30,6031.00
1672.45,5557.00
1673.59,6025.00
1674.73,5359.00
1675.87,5938.00
1677.01,5487.00
1678.15,5990.00
1679.29,5541.00
1680.43,5966.00
1681.57,5569.00
1682.70,5925.00
1683.84,5776.00
1684.98,6156.00
1686.12,5505.00
1687.25,5967.00
1688.39,5432.00
1689.52,6125.00
1690.66,5608.00
1691.79,6075.00
1692.92,5642.00
1694.06,6020.00
1695.19,5591.00
1696.32,6163.00
1697.45,5606.00
1698.58,5981.00
1699.72,5389.00
1700.85,5970.00
1701.98,5676.00
1703.10,6223.00
1704.23,5627.00
1705.36,5992.00
1706.49,5584.00
1707.62,6041.00
1708.74,5434.00
1709.87,5945.00
1711.00,5505.00
1712.12,6343.00
1713.25,5340.00
1714.37,6057.00
1715.50,5498.00
1716.62,6128.00
1717.74,5461.00
1718.87,5766.00
1719.99,5595.00
1721.11,6033.00
1722.23,5464.00
1723.35,5918.00
1724.47,5499.00
1725.59,6131.00
1726.71,5556.00
1727.83,5939.00
1728.95,5573.00
1730.07,5963.00
1731.19,5414.00
1732.30,6021.00
1733.42,5577.00
1734.54,5853.00
1735.65,5516.00
1736.77,5839.00
1737.88,5625.00
1739.00,5919.00
1740.11,5516.00
1741.23,6066.00
1742.34,5380.00
1743.45,5980.00
1744.56,5608.00
1745.68,5831.00
1746.79,5246.00
1747.90,5841.00
1749.01,5227.00
1750.12,5813.00
1751.23,5347.00
1752.34,5793.00
1753.45,5415.00
1754.55,5701.00
1755.66,5375.00
1756.77,5799.00
1757.88,5210.00
1758.98,5594.00
1760.09,5081.00
1761.19,5711.00
1762.30,4974.00
1763.40,5844.00
1764.51,5098.00
1765.61,5541.00
1766.71,5004.00
1767.82,5626.00
1768.92,5031.00
1770.02,5489.00
1771.12,4950.00
1772.22,5383.00
1773.32,5001.00
1774.42,5481.00
1775.52,4893.00
1776.62,5302.00
1777.72,4914.00
1778.82,5234.00
1779.92,4787.00
1781.01,5465.00
1782.11,4731.00
1783.21,5284.00
1784.30,4836.00
1785.40,5333.00
1786.50,4789.00
1787.59,5167.00
1788.68,4667.00
1789.78,5250.00
1790.87,4604.00
1791.96,5220.00
1793.06,4501.00
1794.15,5188.00
1795.24,4736.00
1796.33,5256.00
1797.42,4600.00
1798.51,4962.00
1799.60,4642.00
1800.69,4754.00
1801.78,4252.00
1802.87,4889.00
1803.96,4368.00
1805.05,4913.00
1806.13,4325.00
1807.22,4814.00
1808.31,4428.00
1809.39,4655.00
1810.48,4274.00
1811.56,4657.00
1812.65,4291.00
1813.73,4549.00
1814.82,4214.00
1815.90,4581.00
1816.98,3971.00
1818.07,4502.00
1819.15,4243.00
1820.23,4562.00
1821.31,4033.00
1822.39,4492.00
1823.47,3915.00
1824.55,4346.00
1825.63,3851.00
1826.71,4232.00
1827.79,4064.00
1828.87,4273.00
1829.95,3717.00
1831.02,4148.00
1832.10,3798.00
1833.18,4225.00
1834.25,3661.00
1835.33,4132.00
1836.40,3635.00
1837.48,3955.00
1838.55,3828.00
1839.63,4075.00
1840.70,3607.00
1841.77,4029.00
1842.85,3579.00
1843.92,4067.00
1844.99,3588.00
1846.06,4027.00
1847.13,3381.00
1848.20,4019.00
1849.28,3365.00
1850.34,3886.00
1851.41,3503.00
1852.48,3757.00
1853.55,3383.00
1854.62,3641.00
1855.69,3354.00
1856.76,3687.00
1857.82,3324.00
1858.89,3670.00
1859.95,3332.00
1861.02,3723.00
1862.09,3217.00
1863.15,3662.00
1864.21,3198.00
1865.28,3729.00
1866.34,3246.00
1867.41,3642.00
1868.47,3188.00
1869.53,3668.00
1870.59,3270.00
1871.65,3546.00
1872.71,3196.00
1873.78,3593.00
1874.84,3252.00
1875.90,3529.00
1876.96,3093.00
1878.01,3330.00
1879.07,3000.00
1880.13,3439.00
1881.19,2915.00
1882.25,3372.00
1883.30,3024.00
1884.36,3448.00
1885.42,3136.00
1886.47,3420.00
1887.53,2959.00
1888.58,3470.00
1889.64,3000.00
1890.69,3308.00
1891.74,3020.00
1892.80,3261.00
1893.85,2841.00
1894.90,3333.00
1895.96,2897.00
1897.01,3451.00
1898.06,2883.00
1899.11,3346.00
1900.16,2857.00
1901.21,3392.00
1902.26,2846.00
1903.31,3236.00
1904.36,2786.00
1905.41,3259.00
1906.45,2885.00
1907.50,3168.00
1908.55,3002.00
1909.60,3220.00
1910.64,2889.00
1911.69,3223.00
1912.73,2941.00
1913.78,3282.00
1914.82,2979.00
1915.87,3235.00
1916.91,2883.00
1917.96,3289.00
1919.00,2693.00
1920.04,3203.00
1921.08,2782.00
1922.13,3273.00
1923.17,2805.00
1924.21,3181.00
1925.25,2642.00
1926.29,3204.00
1927.33,2863.00
1928.37,3221.00
1929.41,2776.00
1930.45,3103.00
1931.49,2685.00
1932.53,3148.00
1933.56,2816.00
1934.60,3208.00
1935.64,2702.00
1936.67,3235.00
1937.71,2716.00
1938.75,3130.00
1939.78,2724.00
1940.82,3197.00
1941.85,2778.00
1942.89,3074.00
1943.92,2535.00
1944.95,3123.00
1945.99,2702.00
1947.02,3124.00
1948.05,2714.00
1949.08,3072.00
1950.11,2628.00
1951.15,3061.00
1952.18,2714.00
1953.21,2896.00
1954.24,2556.00
1955.27,3039.00
1956.30,2575.00
1957.32,3085.00
1958.35,2621.00
1959.38,3165.00
1960.41,2699.00
1961.44,3098.00
1962.46,2734.00
1963.49,3038.00
1964.51,2612.00
1965.54,3187.00
1966.57,2481.00
1967.59,3018.00
1968.62,2704.00
1969.64,3025.00
1970.66,2531.00
1971.69,2993.00
1972.71,2719.00
1973.73,3161.00
1974.75,2510.00
1975.78,3038.00
1976.80,2489.00
1977.82,3041.00
1978.84,2535.00
1979.86,2943.00
1980.88,2481.00
1981.90,3141.00
1982.92,2526.00
1983.94,2943.00
1984.96,2602.00
1985.98,3064.00
1986.99,2451.00
1988.01,2981.00
1989.03,2470.00
1990.04,2839.00
1991.06,2531.00
1992.08,2957.00
1993.09,2442.00
1994.11,2831.00
1995.12,2373.00
1996.14,3017.00
1997.15,2605.00
1998.16,2844.00
1999.18,2623.00
2000.19,2851.00
2001.20,2488.00
2002.21,2730.00
2003.23,2507.00
2004.24,2974.00
