ENLIGHTEN Version,1.7.2
Measurement ID,20190905-085556-691922-WP-00340
Serial Number,WP-00340
Label,08:55:56 WP-00340
Integration Time,650
Timestamp,2019-09-05 08:55:56.691922
Note,
Temperature,10.04492359135179
CCD C0,801.7174072265625
CCD C1,0.14122000336647034
CCD C2,-5.609700110653648e-06
CCD C3,-8.541699791919655e-09
CCD Offset,0
CCD Gain,1.9
Laser Wavelength,785
Laser Enable,True
Laser Power,100
Laser Temperature,0
Pixel Count,1024

Pixel,Wavelength,Wavenumber,Processed
0,801.72,265.63,293.00
1,801.86,267.83,388.00
2,802.00,270.02,417.00
3,802.14,272.22,491.00
4,802.28,274.41,561.00
5,802.42,276.60,672.00
6,802.56,278.80,775.00
7,802.71,280.99,929.00
8,802.85,283.18,1132.00
9,802.99,285.37,1330.00
10,803.13,287.55,1520.00
11,803.27,289.74,1849.00
12,803.41,291.93,2184.00
13,803.55,294.11,2648.00
14,803.69,296.30,3138.00
15,803.83,298.48,3719.00
16,803.98,300.66,4509.00
17,804.12,302.84,5085.00
18,804.26,305.02,5545.00
19,804.40,307.20,5724.00
20,804.54,309.38,5551.00
21,804.68,311.56,5046.00
22,804.82,313.74,4520.00
23,804.96,315.91,4056.00
24,805.10,318.09,3695.00
25,805.24,320.26,3491.00
26,805.39,322.43,3521.00
27,805.53,324.61,3643.00
28,805.67,326.78,3641.00
29,805.81,328.95,3589.00
30,805.95,331.12,3537.00
31,806.09,333.28,3517.00
32,806.23,335.45,3329.00
33,806.37,337.62,3105.00
34,806.51,339.78,3025.00
35,806.65,341.95,3103.00
36,806.79,344.11,3228.00
37,806.93,346.27,3523.00
38,807.08,348.43,3860.00
39,807.22,350.59,4558.00
40,807.36,352.75,5089.00
41,807.50,354.91,5553.00
42,807.64,357.07,5685.00
43,807.78,359.23,5815.00
44,807.92,361.38,5485.00
45,808.06,363.54,4863.00
46,808.20,365.69,4185.00
47,808.34,367.84,3533.00
48,808.48,370.00,3109.00
49,808.62,372.15,2796.00
50,808.76,374.30,2777.00
51,808.90,376.45,2898.00
52,809.04,378.59,3101.00
53,809.19,380.74,3087.00
54,809.33,382.89,3168.00
55,809.47,385.03,3023.00
56,809.61,387.18,2752.00
57,809.75,389.32,2439.00
58,809.89,391.46,2344.00
59,810.03,393.60,2214.00
60,810.17,395.74,2178.00
61,810.31,397.88,2036.00
62,810.45,400.02,2084.00
63,810.59,402.16,2314.00
64,810.73,404.29,2576.00
65,810.87,406.43,3046.00
66,811.01,408.57,3754.00
67,811.15,410.70,4800.00
68,811.29,412.83,6097.00
69,811.43,414.96,7391.00
70,811.57,417.09,8142.00
71,811.71,419.22,8400.00
72,811.85,421.35,8150.00
73,811.99,423.48,7355.00
74,812.13,425.61,6575.00
75,812.27,427.73,5952.00
76,812.41,429.86,5380.00
77,812.55,431.98,4990.00
78,812.69,434.11,4446.00
79,812.83,436.23,3951.00
80,812.97,438.35,3315.00
81,813.11,440.47,2721.00
82,813.26,442.59,2218.00
83,813.40,444.71,1925.00
84,813.54,446.82,1535.00
85,813.68,448.94,1362.00
86,813.82,451.05,1253.00
87,813.96,453.17,1121.00
88,814.10,455.28,1056.00
89,814.24,457.39,1106.00
90,814.38,459.51,1027.00
91,814.52,461.62,953.00
92,814.66,463.73,1023.00
93,814.80,465.83,993.00
94,814.94,467.94,1026.00
95,815.08,470.05,1021.00
96,815.22,472.15,998.00
97,815.36,474.26,1050.00
98,815.50,476.36,1094.00
99,815.63,478.47,1138.00
100,815.77,480.57,1347.00
101,815.91,482.67,1461.00
102,816.05,484.77,1748.00
103,816.19,486.87,2047.00
104,816.33,488.97,2447.00
105,816.47,491.06,3036.00
106,816.61,493.16,3459.00
107,816.75,495.25,3900.00
108,816.89,497.35,3768.00
109,817.03,499.44,3651.00
110,817.17,501.53,3331.00
111,817.31,503.62,3034.00
112,817.45,505.71,2888.00
113,817.59,507.80,3059.00
114,817.73,509.89,3197.00
115,817.87,511.98,3409.00
116,818.01,514.07,3468.00
117,818.15,516.15,3219.00
118,818.29,518.24,2891.00
119,818.43,520.32,2368.00
120,818.57,522.40,1948.00
121,818.71,524.48,1518.00
122,818.85,526.56,1353.00
123,818.99,528.64,1141.00
124,819.13,530.72,1016.00
125,819.27,532.80,978.00
126,819.40,534.88,957.00
127,819.54,536.95,985.00
128,819.68,539.03,938.00
129,819.82,541.10,933.00
130,819.96,543.17,936.00
131,820.10,545.24,947.00
132,820.24,547.32,1044.00
133,820.38,549.39,993.00
134,820.52,551.45,1014.00
135,820.66,553.52,1081.00
136,820.80,555.59,1107.00
137,820.94,557.66,1071.00
138,821.08,559.72,1181.00
139,821.22,561.78,1088.00
140,821.35,563.85,1143.00
141,821.49,565.91,1213.00
142,821.63,567.97,1197.00
143,821.77,570.03,1276.00
144,821.91,572.09,1441.00
145,822.05,574.15,1695.00
146,822.19,576.21,2108.00
147,822.33,578.26,2521.00
148,822.47,580.32,2981.00
149,822.61,582.37,3518.00
150,822.75,584.42,3757.00
151,822.88,586.48,3805.00
152,823.02,588.53,3655.00
153,823.16,590.58,3190.00
154,823.30,592.63,2604.00
155,823.44,594.68,2216.00
156,823.58,596.72,1845.00
157,823.72,598.77,1556.00
158,823.86,600.82,1330.00
159,824.00,602.86,1221.00
160,824.13,604.90,1246.00
161,824.27,606.95,1231.00
162,824.41,608.99,1192.00
163,824.55,611.03,1263.00
164,824.69,613.07,1302.00
165,824.83,615.11,1288.00
166,824.97,617.15,1405.00
167,825.10,619.18,1579.00
168,825.24,621.22,1860.00
169,825.38,623.25,2602.00
170,825.52,625.29,4029.00
171,825.66,627.32,6540.00
172,825.80,629.35,10025.00
173,825.94,631.38,13586.00
174,826.07,633.41,15556.00
175,826.21,635.44,14715.00
176,826.35,637.47,13875.00
177,826.49,639.50,10579.00
178,826.63,641.52,7176.00
179,826.77,643.55,4518.00
180,826.91,645.57,3206.00
181,827.04,647.60,2570.00
182,827.18,649.62,2477.00
183,827.32,651.64,2514.00
184,827.46,653.66,2738.00
185,827.60,655.68,2909.00
186,827.74,657.70,3359.00
187,827.87,659.71,3807.00
188,828.01,661.73,4295.00
189,828.15,663.75,4674.00
190,828.29,665.76,4953.00
191,828.43,667.77,5095.00
192,828.56,669.79,4851.00
193,828.70,671.80,4530.00
194,828.84,673.81,3987.00
195,828.98,675.82,3442.00
196,829.12,677.83,2994.00
197,829.25,679.83,2616.00
198,829.39,681.84,2244.00
199,829.53,683.84,2030.00
200,829.67,685.85,1813.00
201,829.81,687.85,1702.00
202,829.94,689.86,1759.00
203,830.08,691.86,1741.00
204,830.22,693.86,1763.00
205,830.36,695.86,1947.00
206,830.50,697.86,2017.00
207,830.63,699.85,2373.00
208,830.77,701.85,2733.00
209,830.91,703.85,2971.00
210,831.05,705.84,3173.00
211,831.18,707.84,3136.00
212,831.32,709.83,2918.00
213,831.46,711.82,2621.00
214,831.60,713.81,2239.00
215,831.74,715.80,1959.00
216,831.87,717.79,1672.00
217,832.01,719.78,1591.00
218,832.15,721.76,1507.00
219,832.29,723.75,1556.00
220,832.42,725.74,1546.00
221,832.56,727.72,1592.00
222,832.70,729.70,1721.00
223,832.84,731.68,1899.00
224,832.97,733.67,2033.00
225,833.11,735.65,2312.00
226,833.25,737.62,2887.00
227,833.39,739.60,3612.00
228,833.52,741.58,4762.00
229,833.66,743.56,6612.00
230,833.80,745.53,9196.00
231,833.93,747.51,11994.00
232,834.07,749.48,14227.00
233,834.21,751.45,15273.00
234,834.35,753.42,14680.00
235,834.48,755.39,12923.00
236,834.62,757.36,10390.00
237,834.76,759.33,7950.00
238,834.89,761.30,5983.00
239,835.03,763.26,4885.00
240,835.17,765.23,4396.00
241,835.31,767.19,4199.00
242,835.44,769.16,4114.00
243,835.58,771.12,4165.00
244,835.72,773.08,4309.00
245,835.85,775.04,5003.00
246,835.99,777.00,6776.00
247,836.13,778.96,9879.00
248,836.26,780.92,14437.00
249,836.40,782.87,19115.00
250,836.54,784.83,22579.00
251,836.68,786.78,23409.00
252,836.81,788.74,21905.00
253,836.95,790.69,18281.00
254,837.09,792.64,14129.00
255,837.22,794.59,10705.00
256,837.36,796.54,8543.00
257,837.50,798.49,7377.00
258,837.63,800.44,7050.00
259,837.77,802.38,7074.00
260,837.91,804.33,7098.00
261,838.04,806.27,7458.00
262,838.18,808.22,8077.00
263,838.31,810.16,9124.00
264,838.45,812.10,10604.00
265,838.59,814.04,12624.00
266,838.72,815.98,15297.00
267,838.86,817.92,18155.00
268,839.00,819.86,20983.00
269,839.13,821.80,23228.00
270,839.27,823.73,25066.00
271,839.41,825.67,26309.00
272,839.54,827.60,26974.00
273,839.68,829.53,27549.00
274,839.81,831.47,28147.00
275,839.95,833.40,28912.00
276,840.09,835.33,29676.00
277,840.22,837.26,29926.00
278,840.36,839.18,29222.00
279,840.50,841.11,27473.00
280,840.63,843.04,25141.00
281,840.77,844.96,21923.00
282,840.90,846.89,18668.00
283,841.04,848.81,15542.00
284,841.18,850.73,12955.00
285,841.31,852.65,10828.00
286,841.45,854.57,9258.00
287,841.58,856.49,7857.00
288,841.72,858.41,6776.00
289,841.86,860.33,5783.00
290,841.99,862.24,4938.00
291,842.13,864.16,4469.00
292,842.26,866.07,4132.00
293,842.40,867.99,4024.00
294,842.53,869.90,4151.00
295,842.67,871.81,4568.00
296,842.81,873.72,5228.00
297,842.94,875.63,6007.00
298,843.08,877.54,6759.00
299,843.21,879.44,7512.00
300,843.35,881.35,7878.00
301,843.48,883.26,8318.00
302,843.62,885.16,8534.00
303,843.75,887.06,8585.00
304,843.89,888.97,8447.00
305,844.03,890.87,8037.00
306,844.16,892.77,7588.00
307,844.30,894.67,6731.00
308,844.43,896.57,5821.00
309,844.57,898.46,4984.00
310,844.70,900.36,4225.00
311,844.84,902.26,3561.00
312,844.97,904.15,3116.00
313,845.11,906.04,2829.00
314,845.24,907.94,2523.00
315,845.38,909.83,2490.00
316,845.51,911.72,2511.00
317,845.65,913.61,2654.00
318,845.78,915.50,3026.00
319,845.92,917.38,3445.00
320,846.05,919.27,3622.00
321,846.19,921.16,3917.00
322,846.32,923.04,3849.00
323,846.46,924.92,3502.00
324,846.59,926.81,3175.00
325,846.73,928.69,2842.00
326,846.86,930.57,2821.00
327,847.00,932.45,2900.00
328,847.13,934.33,3366.00
329,847.27,936.20,4463.00
330,847.40,938.08,5876.00
331,847.54,939.96,7506.00
332,847.67,941.83,9033.00
333,847.81,943.71,10113.00
334,847.94,945.58,11045.00
335,848.08,947.45,11547.00
336,848.21,949.32,12137.00
337,848.34,951.19,12807.00
338,848.48,953.06,13189.00
339,848.61,954.93,12908.00
340,848.75,956.79,11925.00
341,848.88,958.66,10040.00
342,849.02,960.52,8036.00
343,849.15,962.39,6125.00
344,849.29,964.25,4596.00
345,849.42,966.11,3808.00
346,849.55,967.97,3460.00
347,849.69,969.83,3209.00
348,849.82,971.69,3095.00
349,849.96,973.55,2846.00
350,850.09,975.41,2487.00
351,850.23,977.26,2237.00
352,850.36,979.12,2087.00
353,850.49,980.97,2081.00
354,850.63,982.82,2061.00
355,850.76,984.68,2241.00
356,850.90,986.53,2410.00
357,851.03,988.38,2729.00
358,851.16,990.23,3464.00
359,851.30,992.07,4550.00
360,851.43,993.92,6409.00
361,851.56,995.77,9162.00
362,851.70,997.61,12674.00
363,851.83,999.46,15985.00
364,851.97,1001.30,18072.00
365,852.10,1003.14,18211.00
366,852.23,1004.98,16733.00
367,852.37,1006.82,13727.00
368,852.50,1008.66,10006.00
369,852.63,1010.50,6896.00
370,852.77,1012.34,4794.00
371,852.90,1014.17,3453.00
372,853.04,1016.01,2726.00
373,853.17,1017.84,2452.00
374,853.30,1019.68,2254.00
375,853.44,1021.51,2232.00
376,853.57,1023.34,1950.00
377,853.70,1025.17,1828.00
378,853.84,1027.00,1706.00
379,853.97,1028.83,1594.00
380,854.10,1030.65,1546.00
381,854.24,1032.48,1493.00
382,854.37,1034.31,1501.00
383,854.50,1036.13,1387.00
384,854.64,1037.95,1436.00
385,854.77,1039.77,1465.00
386,854.90,1041.60,1494.00
387,855.03,1043.42,1508.00
388,855.17,1045.24,1520.00
389,855.30,1047.05,1647.00
390,855.43,1048.87,1849.00
391,855.57,1050.69,2313.00
392,855.70,1052.50,2620.00
393,855.83,1054.32,3104.00
394,855.96,1056.13,3344.00
395,856.10,1057.94,3679.00
396,856.23,1059.75,3666.00
397,856.36,1061.56,3662.00
398,856.50,1063.37,3656.00
399,856.63,1065.18,4031.00
400,856.76,1066.99,4566.00
401,856.89,1068.80,5176.00
402,857.03,1070.60,5671.00
403,857.16,1072.41,5676.00
404,857.29,1074.21,5386.00
405,857.42,1076.01,4834.00
406,857.56,1077.81,4282.00
407,857.69,1079.61,3697.00
408,857.82,1081.41,3377.00
409,857.95,1083.21,3346.00
410,858.09,1085.01,3641.00
411,858.22,1086.81,4205.00
412,858.35,1088.60,4998.00
413,858.48,1090.40,5711.00
414,858.61,1092.19,6413.00
415,858.75,1093.98,6532.00
416,858.88,1095.77,6498.00
417,859.01,1097.56,6080.00
418,859.14,1099.35,5623.00
419,859.28,1101.14,5047.00
420,859.41,1102.93,4950.00
421,859.54,1104.72,5421.00
422,859.67,1106.50,6295.00
423,859.80,1108.29,7618.00
424,859.94,1110.07,9818.00
425,860.07,1111.85,12015.00
426,860.20,1113.63,13972.00
427,860.33,1115.41,15377.00
428,860.46,1117.19,15986.00
429,860.59,1118.97,15379.00
430,860.73,1120.75,14068.00
431,860.86,1122.53,12196.00
432,860.99,1124.30,10397.00
433,861.12,1126.08,8305.00
434,861.25,1127.85,6644.00
435,861.38,1129.62,5323.00
436,861.51,1131.39,4325.00
437,861.65,1133.17,3542.00
438,861.78,1134.93,3150.00
439,861.91,1136.70,2975.00
440,862.04,1138.47,2692.00
441,862.17,1140.24,2538.00
442,862.30,1142.00,2545.00
443,862.43,1143.77,2513.00
444,862.57,1145.53,2606.00
445,862.70,1147.29,2619.00
446,862.83,1149.06,2665.00
447,862.96,1150.82,2819.00
448,863.09,1152.58,3002.00
449,863.22,1154.34,3158.00
450,863.35,1156.09,3487.00
451,863.48,1157.85,3911.00
452,863.61,1159.61,4336.00
453,863.74,1161.36,5087.00
454,863.88,1163.11,6114.00
455,864.01,1164.87,7130.00
456,864.14,1166.62,7942.00
457,864.27,1168.37,8776.00
458,864.40,1170.12,9301.00
459,864.53,1171.87,10239.00
460,864.66,1173.62,11946.00
461,864.79,1175.36,15213.00
462,864.92,1177.11,21028.00
463,865.05,1178.85,29035.00
464,865.18,1180.60,37689.00
465,865.31,1182.34,44831.00
466,865.44,1184.08,49088.00
467,865.57,1185.82,49553.00
468,865.70,1187.56,46904.00
469,865.83,1189.30,41580.00
470,865.96,1191.04,35190.00
471,866.10,1192.78,29296.00
472,866.23,1194.51,24628.00
473,866.36,1196.25,21131.00
474,866.49,1197.98,19164.00
475,866.62,1199.71,19103.00
476,866.75,1201.45,20182.00
477,866.88,1203.18,22077.00
478,867.01,1204.91,23273.00
479,867.14,1206.64,23108.00
480,867.27,1208.36,21307.00
481,867.40,1210.09,18496.00
482,867.53,1211.82,15152.00
483,867.66,1213.54,12706.00
484,867.79,1215.27,11118.00
485,867.92,1216.99,10539.00
486,868.04,1218.71,10512.00
487,868.17,1220.43,10309.00
488,868.30,1222.15,9811.00
489,868.43,1223.87,8831.00
490,868.56,1225.59,7632.00
491,868.69,1227.31,6522.00
492,868.82,1229.02,5308.00
493,868.95,1230.74,4571.00
494,869.08,1232.45,4104.00
495,869.21,1234.16,3897.00
496,869.34,1235.88,3863.00
497,869.47,1237.59,3829.00
498,869.60,1239.30,4198.00
499,869.73,1241.01,4508.00
500,869.86,1242.71,5146.00
501,869.99,1244.42,5745.00
502,870.12,1246.13,6418.00
503,870.24,1247.83,7077.00
504,870.37,1249.54,7688.00
505,870.50,1251.24,7828.00
506,870.63,1252.94,7706.00
507,870.76,1254.64,7276.00
508,870.89,1256.34,6772.00
509,871.02,1258.04,5919.00
510,871.15,1259.74,5389.00
511,871.28,1261.44,4756.00
512,871.41,1263.13,4426.00
513,871.53,1264.83,4136.00
514,871.66,1266.52,4033.00
515,871.79,1268.22,3927.00
516,871.92,1269.91,4160.00
517,872.05,1271.60,4535.00
518,872.18,1273.29,4962.00
519,872.31,1274.98,5738.00
520,872.43,1276.67,6890.00
521,872.56,1278.35,8053.00
522,872.69,1280.04,9617.00
523,872.82,1281.73,10693.00
524,872.95,1283.41,11498.00
525,873.08,1285.09,11739.00
526,873.20,1286.78,11629.00
527,873.33,1288.46,11688.00
528,873.46,1290.14,11426.00
529,873.59,1291.82,11359.00
530,873.72,1293.49,10809.00
531,873.84,1295.17,10259.00
532,873.97,1296.85,9245.00
533,874.10,1298.52,8327.00
534,874.23,1300.20,7406.00
535,874.36,1301.87,6843.00
536,874.48,1303.54,6752.00
537,874.61,1305.21,6588.00
538,874.74,1306.88,6540.00
539,874.87,1308.55,6347.00
540,875.00,1310.22,6281.00
541,875.12,1311.89,5799.00
542,875.25,1313.56,5376.00
543,875.38,1315.22,5281.00
544,875.51,1316.89,5325.00
545,875.63,1318.55,5578.00
546,875.76,1320.21,6283.00
547,875.89,1321.87,7238.00
548,876.02,1323.53,8185.00
549,876.14,1325.19,8868.00
550,876.27,1326.85,9093.00
551,876.40,1328.51,9140.00
552,876.52,1330.16,8710.00
553,876.65,1331.82,8380.00
554,876.78,1333.47,7977.00
555,876.91,1335.13,8137.00
556,877.03,1336.78,8785.00
557,877.16,1338.43,9698.00
558,877.29,1340.08,10757.00
559,877.41,1341.73,11517.00
560,877.54,1343.38,12026.00
561,877.67,1345.03,11886.00
562,877.80,1346.67,11114.00
563,877.92,1348.32,10020.00
564,878.05,1349.96,8816.00
565,878.18,1351.61,7408.00
566,878.30,1353.25,6588.00
567,878.43,1354.89,5823.00
568,878.56,1356.53,5627.00
569,878.68,1358.17,5521.00
570,878.81,1359.81,5625.00
571,878.93,1361.45,6181.00
572,879.06,1363.08,6698.00
573,879.19,1364.72,6686.00
574,879.31,1366.35,6618.00
575,879.44,1367.99,6181.00
576,879.57,1369.62,5675.00
577,879.69,1371.25,5058.00
578,879.82,1372.88,4564.00
579,879.95,1374.51,4368.00
580,880.07,1376.14,3828.00
581,880.20,1377.77,3880.00
582,880.32,1379.39,3681.00
583,880.45,1381.02,3821.00
584,880.58,1382.64,3845.00
585,880.70,1384.27,3859.00
586,880.83,1385.89,3754.00
587,880.95,1387.51,3740.00
588,881.08,1389.13,3742.00
589,881.20,1390.75,3736.00
590,881.33,1392.37,3797.00
591,881.46,1393.99,3806.00
592,881.58,1395.60,3889.00
593,881.71,1397.22,4077.00
594,881.83,1398.83,4210.00
595,881.96,1400.45,4657.00
596,882.08,1402.06,5157.00
597,882.21,1403.67,5357.00
598,882.33,1405.28,5939.00
599,882.46,1406.89,6576.00
600,882.58,1408.50,7244.00
601,882.71,1410.11,7950.00
602,882.84,1411.71,8682.00
603,882.96,1413.32,9605.00
604,883.09,1414.92,10159.00
605,883.21,1416.53,10765.00
606,883.34,1418.13,11111.00
607,883.46,1419.73,10813.00
608,883.59,1421.33,10623.00
609,883.71,1422.93,9983.00
610,883.84,1424.53,9354.00
611,883.96,1426.13,8698.00
612,884.09,1427.72,7969.00
613,884.21,1429.32,7623.00
614,884.33,1430.91,7683.00
615,884.46,1432.51,7853.00
616,884.58,1434.10,8256.00
617,884.71,1435.69,8943.00
618,884.83,1437.28,9595.00
619,884.96,1438.87,10490.00
620,885.08,1440.46,11361.00
621,885.21,1442.05,12822.00
622,885.33,1443.64,14762.00
623,885.45,1445.22,16714.00
624,885.58,1446.81,18552.00
625,885.70,1448.39,19847.00
626,885.83,1449.97,20451.00
627,885.95,1451.55,19944.00
628,886.08,1453.14,19078.00
629,886.20,1454.72,17752.00
630,886.32,1456.29,16861.00
631,886.45,1457.87,16642.00
632,886.57,1459.45,16436.00
633,886.70,1461.02,16393.00
634,886.82,1462.60,15944.00
635,886.94,1464.17,14916.00
636,887.07,1465.75,13395.00
637,887.19,1467.32,12078.00
638,887.31,1468.89,10796.00
639,887.44,1470.46,9538.00
640,887.56,1472.03,9335.00
641,887.68,1473.59,9049.00
642,887.81,1475.16,8911.00
643,887.93,1476.73,8522.00
644,888.06,1478.29,7939.00
645,888.18,1479.86,7373.00
646,888.30,1481.42,6519.00
647,888.43,1482.98,5641.00
648,888.55,1484.54,5017.00
649,888.67,1486.10,4384.00
650,888.79,1487.66,4165.00
651,888.92,1489.22,3946.00
652,889.04,1490.77,3852.00
653,889.16,1492.33,3837.00
654,889.29,1493.88,3629.00
655,889.41,1495.44,3599.00
656,889.53,1496.99,3538.00
657,889.66,1498.54,3289.00
658,889.78,1500.09,3503.00
659,889.90,1501.64,3427.00
660,890.02,1503.19,3493.00
661,890.15,1504.74,3466.00
662,890.27,1506.29,3459.00
663,890.39,1507.83,3500.00
664,890.51,1509.38,3257.00
665,890.64,1510.92,3381.00
666,890.76,1512.47,3183.00
667,890.88,1514.01,3196.00
668,891.00,1515.55,3306.00
669,891.13,1517.09,3080.00
670,891.25,1518.63,3078.00
671,891.37,1520.16,3163.00
672,891.49,1521.70,3093.00
673,891.61,1523.24,3184.00
674,891.74,1524.77,3109.00
675,891.86,1526.31,3123.00
676,891.98,1527.84,3223.00
677,892.10,1529.37,3195.00
678,892.22,1530.90,3319.00
679,892.35,1532.43,3122.00
680,892.47,1533.96,3207.00
681,892.59,1535.49,3317.00
682,892.71,1537.02,3428.00
683,892.83,1538.54,3548.00
684,892.95,1540.07,3552.00
685,893.08,1541.59,3793.00
686,893.20,1543.11,3883.00
687,893.32,1544.64,3759.00
688,893.44,1546.16,3784.00
689,893.56,1547.68,3595.00
690,893.68,1549.20,3546.00
691,893.80,1550.71,3440.00
692,893.92,1552.23,3293.00
693,894.05,1553.75,3245.00
694,894.17,1555.26,3230.00
695,894.29,1556.78,3159.00
696,894.41,1558.29,3247.00
697,894.53,1559.80,3227.00
698,894.65,1561.31,3289.00
699,894.77,1562.82,3413.00
700,894.89,1564.33,3694.00
701,895.01,1565.84,4210.00
702,895.13,1567.35,4796.00
703,895.26,1568.85,5216.00
704,895.38,1570.36,6517.00
705,895.50,1571.86,6985.00
706,895.62,1573.36,7346.00
707,895.74,1574.87,7280.00
708,895.86,1576.37,6983.00
709,895.98,1577.87,6175.00
710,896.10,1579.37,5494.00
711,896.22,1580.87,4777.00
712,896.34,1582.36,3998.00
713,896.46,1583.86,3770.00
714,896.58,1585.35,3588.00
715,896.70,1586.85,3662.00
716,896.82,1588.34,3441.00
717,896.94,1589.83,3603.00
718,897.06,1591.32,3714.00
719,897.18,1592.81,4210.00
720,897.30,1594.30,4710.00
721,897.42,1595.79,5307.00
722,897.54,1597.28,6240.00
723,897.66,1598.76,7653.00
724,897.78,1600.25,9386.00
725,897.90,1601.73,11870.00
726,898.02,1603.22,15148.00
727,898.14,1604.70,19014.00
728,898.26,1606.18,23968.00
729,898.38,1607.66,28602.00
730,898.50,1609.14,32403.00
731,898.62,1610.62,34541.00
732,898.73,1612.10,34554.00
733,898.85,1613.57,32897.00
734,898.97,1615.05,29007.00
