ENLIGHTEN Version,1.7.2
Measurement ID,20190905-084416-429035-WP-00340
Serial Number,WP-00340
Label,08:44:16 WP-00340
Integration Time,500
Timestamp,2019-09-05 08:44:16.429035
Note,
Temperature,10.027889651658995
CCD C0,801.7174072265625
CCD C1,0.14122000336647034
CCD C2,-5.609700110653648e-06
CCD C3,-8.541699791919655e-09
CCD Offset,0
CCD Gain,1.9
Laser Wavelength,785
Laser Enable,True
Laser Power,100
Laser Temperature,0
Pixel Count,1024

Pixel,Wavelength,Wavenumber,Processed
0,801.72,265.63,400.00
1,801.86,267.83,531.00
2,802.00,270.02,675.00
3,802.14,272.22,850.00
4,802.28,274.41,1132.00
5,802.42,276.60,1425.00
6,802.56,278.80,1828.00
7,802.71,280.99,2348.00
8,802.85,283.18,2974.00
9,802.99,285.37,3677.00
10,803.13,287.55,4446.00
11,803.27,289.74,5314.00
12,803.41,291.93,6091.00
13,803.55,294.11,6896.00
14,803.69,296.30,7613.00
15,803.83,298.48,8205.00
16,803.98,300.66,8600.00
17,804.12,302.84,8999.00
18,804.26,305.02,9242.00
19,804.40,307.20,9354.00
20,804.54,309.38,9392.00
21,804.68,311.56,9472.00
22,804.82,313.74,9489.00
23,804.96,315.91,9561.00
24,805.10,318.09,9470.00
25,805.24,320.26,9546.00
26,805.39,322.43,9634.00
27,805.53,324.61,9658.00
28,805.67,326.78,9679.00
29,805.81,328.95,9701.00
30,805.95,331.12,9725.00
31,806.09,333.28,9799.00
32,806.23,335.45,9809.00
33,806.37,337.62,9849.00
34,806.51,339.78,9890.00
35,806.65,341.95,10040.00
36,806.79,344.11,10029.00
37,806.93,346.27,9927.00
38,807.08,348.43,10092.00
39,807.22,350.59,10134.00
40,807.36,352.75,10092.00
41,807.50,354.91,10115.00
42,807.64,357.07,10137.00
43,807.78,359.23,10159.00
44,807.92,361.38,10274.00
45,808.06,363.54,10199.00
46,808.20,365.69,10098.00
47,808.34,367.84,10208.00
48,808.48,370.00,10204.00
49,808.62,372.15,10190.00
50,808.76,374.30,10191.00
51,808.90,376.45,10271.00
52,809.04,378.59,10195.00
53,809.19,380.74,10293.00
54,809.33,382.89,10360.00
55,809.47,385.03,10404.00
56,809.61,387.18,10404.00
57,809.75,389.32,10417.00
58,809.89,391.46,10493.00
59,810.03,393.60,10556.00
60,810.17,395.74,10578.00
61,810.31,397.88,10714.00
62,810.45,400.02,10832.00
63,810.59,402.16,10868.00
64,810.73,404.29,11005.00
65,810.87,406.43,10992.00
66,811.01,408.57,11230.00
67,811.15,410.70,11300.00
68,811.29,412.83,11489.00
69,811.43,414.96,11792.00
70,811.57,417.09,11991.00
71,811.71,419.22,11955.00
72,811.85,421.35,12297.00
73,811.99,423.48,12354.00
74,812.13,425.61,12500.00
75,812.27,427.73,12739.00
76,812.41,429.86,12965.00
77,812.55,431.98,13200.00
78,812.69,434.11,13326.00
79,812.83,436.23,13757.00
80,812.97,438.35,13950.00
81,813.11,440.47,14180.00
82,813.26,442.59,14233.00
83,813.40,444.71,14387.00
84,813.54,446.82,14517.00
85,813.68,448.94,14228.00
86,813.82,451.05,14091.00
87,813.96,453.17,13845.00
88,814.10,455.28,13560.00
89,814.24,457.39,13126.00
90,814.38,459.51,12883.00
91,814.52,461.62,12483.00
92,814.66,463.73,12209.00
93,814.80,465.83,11859.00
94,814.94,467.94,11612.00
95,815.08,470.05,11374.00
96,815.22,472.15,11205.00
97,815.36,474.26,11041.00
98,815.50,476.36,10885.00
99,815.63,478.47,10704.00
100,815.77,480.57,10749.00
101,815.91,482.67,10634.00
102,816.05,484.77,10568.00
103,816.19,486.87,10478.00
104,816.33,488.97,10461.00
105,816.47,491.06,10522.00
106,816.61,493.16,10484.00
107,816.75,495.25,10419.00
108,816.89,497.35,10461.00
109,817.03,499.44,10302.00
110,817.17,501.53,10298.00
111,817.31,503.62,10219.00
112,817.45,505.71,10221.00
113,817.59,507.80,10107.00
114,817.73,509.89,10223.00
115,817.87,511.98,10109.00
116,818.01,514.07,10160.00
117,818.15,516.15,10121.00
118,818.29,518.24,10016.00
119,818.43,520.32,10062.00
120,818.57,522.40,10014.00
121,818.71,524.48,9940.00
122,818.85,526.56,9976.00
123,818.99,528.64,9947.00
124,819.13,530.72,10017.00
125,819.27,532.80,9970.00
126,819.40,534.88,9888.00
127,819.54,536.95,9866.00
128,819.68,539.03,9911.00
129,819.82,541.10,9974.00
130,819.96,543.17,9990.00
131,820.10,545.24,9952.00
132,820.24,547.32,9948.00
133,820.38,549.39,10010.00
134,820.52,551.45,10106.00
135,820.66,553.52,10145.00
136,820.80,555.59,10161.00
137,820.94,557.66,10287.00
138,821.08,559.72,10261.00
139,821.22,561.78,10256.00
140,821.35,563.85,10396.00
141,821.49,565.91,10374.00
142,821.63,567.97,10573.00
143,821.77,570.03,10666.00
144,821.91,572.09,10750.00
145,822.05,574.15,10961.00
146,822.19,576.21,11050.00
147,822.33,578.26,11186.00
148,822.47,580.32,11399.00
149,822.61,582.37,11498.00
150,822.75,584.42,11639.00
151,822.88,586.48,11891.00
152,823.02,588.53,12015.00
153,823.16,590.58,12226.00
154,823.30,592.63,12396.00
155,823.44,594.68,12541.00
156,823.58,596.72,12825.00
157,823.72,598.77,12969.00
158,823.86,600.82,13256.00
159,824.00,602.86,13404.00
160,824.13,604.90,13514.00
161,824.27,606.95,13560.00
162,824.41,608.99,13683.00
163,824.55,611.03,13606.00
164,824.69,613.07,13507.00
165,824.83,615.11,13301.00
166,824.97,617.15,13120.00
167,825.10,619.18,12709.00
168,825.24,621.22,12607.00
169,825.38,623.25,12270.00
170,825.52,625.29,12063.00
171,825.66,627.32,11994.00
172,825.80,629.35,11935.00
173,825.94,631.38,11870.00
174,826.07,633.41,11730.00
175,826.21,635.44,11503.00
176,826.35,637.47,11276.00
177,826.49,639.50,11064.00
178,826.63,641.52,10652.00
179,826.77,643.55,10372.00
180,826.91,645.57,10362.00
181,827.04,647.60,10075.00
182,827.18,649.62,10029.00
183,827.32,651.64,10017.00
184,827.46,653.66,9989.00
185,827.60,655.68,9936.00
186,827.74,657.70,9875.00
187,827.87,659.71,9820.00
188,828.01,661.73,9888.00
189,828.15,663.75,9844.00
190,828.29,665.76,9799.00
191,828.43,667.77,9791.00
192,828.56,669.79,9784.00
193,828.70,671.80,9643.00
194,828.84,673.81,9671.00
195,828.98,675.82,9623.00
196,829.12,677.83,9628.00
197,829.25,679.83,9474.00
198,829.39,681.84,9449.00
199,829.53,683.84,9474.00
200,829.67,685.85,9446.00
201,829.81,687.85,9393.00
202,829.94,689.86,9453.00
203,830.08,691.86,9498.00
204,830.22,693.86,9428.00
205,830.36,695.86,9362.00
206,830.50,697.86,9373.00
207,830.63,699.85,9430.00
208,830.77,701.85,9398.00
209,830.91,703.85,9434.00
210,831.05,705.84,9407.00
211,831.18,707.84,9413.00
212,831.32,709.83,9544.00
213,831.46,711.82,9403.00
214,831.60,713.81,9407.00
215,831.74,715.80,9419.00
216,831.87,717.79,9483.00
217,832.01,719.78,9366.00
218,832.15,721.76,9461.00
219,832.29,723.75,9324.00
220,832.42,725.74,9357.00
221,832.56,727.72,9339.00
222,832.70,729.70,9293.00
223,832.84,731.68,9288.00
224,832.97,733.67,9283.00
225,833.11,735.65,9236.00
226,833.25,737.62,9207.00
227,833.39,739.60,9189.00
228,833.52,741.58,9263.00
229,833.66,743.56,9411.00
230,833.80,745.53,9504.00
231,833.93,747.51,9542.00
232,834.07,749.48,9607.00
233,834.21,751.45,9735.00
234,834.35,753.42,9703.00
235,834.48,755.39,9538.00
236,834.62,757.36,9460.00
237,834.76,759.33,9340.00
238,834.89,761.30,9185.00
239,835.03,763.26,9107.00
240,835.17,765.23,9070.00
241,835.31,767.19,9132.00
242,835.44,769.16,9065.00
243,835.58,771.12,9068.00
244,835.72,773.08,9059.00
245,835.85,775.04,9219.00
246,835.99,777.00,9192.00
247,836.13,778.96,9337.00
248,836.26,780.92,9550.00
249,836.40,782.87,9761.00
250,836.54,784.83,10054.00
251,836.68,786.78,10111.00
252,836.81,788.74,10022.00
253,836.95,790.69,9753.00
254,837.09,792.64,9639.00
255,837.22,794.59,9402.00
256,837.36,796.54,9344.00
257,837.50,798.49,9272.00
258,837.63,800.44,9209.00
259,837.77,802.38,9275.00
260,837.91,804.33,9343.00
261,838.04,806.27,9323.00
262,838.18,808.22,9268.00
263,838.31,810.16,9270.00
264,838.45,812.10,9392.00
265,838.59,814.04,9464.00
266,838.72,815.98,9586.00
267,838.86,817.92,9809.00
268,839.00,819.86,9896.00
269,839.13,821.80,9976.00
270,839.27,823.73,10146.00
271,839.41,825.67,10172.00
272,839.54,827.60,10155.00
273,839.68,829.53,10233.00
274,839.81,831.47,10263.00
275,839.95,833.40,10313.00
276,840.09,835.33,10362.00
277,840.22,837.26,10361.00
278,840.36,839.18,10317.00
279,840.50,841.11,10197.00
280,840.63,843.04,10104.00
281,840.77,844.96,9949.00
282,840.90,846.89,9756.00
283,841.04,848.81,9580.00
284,841.18,850.73,9596.00
285,841.31,852.65,9453.00
286,841.45,854.57,9300.00
287,841.58,856.49,9262.00
288,841.72,858.41,9249.00
289,841.86,860.33,9152.00
290,841.99,862.24,9108.00
291,842.13,864.16,9173.00
292,842.26,866.07,9166.00
293,842.40,867.99,9065.00
294,842.53,869.90,9086.00
295,842.67,871.81,9091.00
296,842.81,873.72,9103.00
297,842.94,875.63,9097.00
298,843.08,877.54,9212.00
299,843.21,879.44,9185.00
300,843.35,881.35,9159.00
301,843.48,883.26,9242.00
302,843.62,885.16,9215.00
303,843.75,887.06,9263.00
304,843.89,888.97,9236.00
305,844.03,890.87,9130.00
306,844.16,892.77,9002.00
307,844.30,894.67,8924.00
308,844.43,896.57,8945.00
309,844.57,898.46,8781.00
310,844.70,900.36,8756.00
311,844.84,902.26,8669.00
312,844.97,904.15,8665.00
313,845.11,906.04,8671.00
314,845.24,907.94,8505.00
315,845.38,909.83,8469.00
316,845.51,911.72,8522.00
317,845.65,913.61,8507.00
318,845.78,915.50,8505.00
319,845.92,917.38,8634.00
320,846.05,919.27,8577.00
321,846.19,921.16,8557.00
322,846.32,923.04,8576.00
323,846.46,924.92,8530.00
324,846.59,926.81,8467.00
325,846.73,928.69,8523.00
326,846.86,930.57,8471.00
327,847.00,932.45,8404.00
328,847.13,934.33,8467.00
329,847.27,936.20,8521.00
330,847.40,938.08,8423.00
331,847.54,939.96,8553.00
332,847.67,941.83,8625.00
333,847.81,943.71,8671.00
334,847.94,945.58,8685.00
335,848.08,947.45,8731.00
336,848.21,949.32,8645.00
337,848.34,951.19,8696.00
338,848.48,953.06,8740.00
339,848.61,954.93,8587.00
340,848.75,956.79,8653.00
341,848.88,958.66,8515.00
342,849.02,960.52,8454.00
343,849.15,962.39,8298.00
344,849.29,964.25,8172.00
345,849.42,966.11,8104.00
346,849.55,967.97,8168.00
347,849.69,969.83,8091.00
348,849.82,971.69,8041.00
349,849.96,973.55,8012.00
350,850.09,975.41,8095.00
351,850.23,977.26,8060.00
352,850.36,979.12,7969.00
353,850.49,980.97,7999.00
354,850.63,982.82,7997.00
355,850.76,984.68,7954.00
356,850.90,986.53,8039.00
357,851.03,988.38,7998.00
358,851.16,990.23,8052.00
359,851.30,992.07,8093.00
360,851.43,993.92,8188.00
361,851.56,995.77,8397.00
362,851.70,997.61,8631.00
363,851.83,999.46,8671.00
364,851.97,1001.30,8875.00
365,852.10,1003.14,8817.00
366,852.23,1004.98,8779.00
367,852.37,1006.82,8656.00
368,852.50,1008.66,8488.00
369,852.63,1010.50,8354.00
370,852.77,1012.34,8191.00
371,852.90,1014.17,8182.00
372,853.04,1016.01,8117.00
373,853.17,1017.84,8165.00
374,853.30,1019.68,8108.00
375,853.44,1021.51,8184.00
376,853.57,1023.34,8173.00
377,853.70,1025.17,8098.00
378,853.84,1027.00,8163.00
379,853.97,1028.83,8165.00
380,854.10,1030.65,8135.00
381,854.24,1032.48,8173.00
382,854.37,1034.31,8270.00
383,854.50,1036.13,8276.00
384,854.64,1037.95,8285.00
385,854.77,1039.77,8372.00
386,854.90,1041.60,8458.00
387,855.03,1043.42,8549.00
388,855.17,1045.24,8743.00
389,855.30,1047.05,9053.00
390,855.43,1048.87,9548.00
391,855.57,1050.69,10305.00
392,855.70,1052.50,11800.00
393,855.83,1054.32,13992.00
394,855.96,1056.13,17200.00
395,856.10,1057.94,20258.00
396,856.23,1059.75,22666.00
397,856.36,1061.56,23500.00
398,856.50,1063.37,22681.00
399,856.63,1065.18,20614.00
400,856.76,1066.99,17568.00
401,856.89,1068.80,14599.00
402,857.03,1070.60,12613.00
403,857.16,1072.41,11515.00
404,857.29,1074.21,10927.00
405,857.42,1076.01,10727.00
406,857.56,1077.81,10510.00
407,857.69,1079.61,10467.00
408,857.82,1081.41,10328.00
409,857.95,1083.21,10261.00
410,858.09,1085.01,10193.00
411,858.22,1086.81,10021.00
412,858.35,1088.60,9940.00
413,858.48,1090.40,9841.00
414,858.61,1092.19,9639.00
415,858.75,1093.98,9586.00
416,858.88,1095.77,9367.00
417,859.01,1097.56,9196.00
418,859.14,1099.35,9072.00
419,859.28,1101.14,9017.00
420,859.41,1102.93,9000.00
421,859.54,1104.72,8981.00
422,859.67,1106.50,9038.00
423,859.80,1108.29,9139.00
424,859.94,1110.07,9392.00
425,860.07,1111.85,9645.00
426,860.20,1113.63,9959.00
427,860.33,1115.41,10388.00
428,860.46,1117.19,11017.00
429,860.59,1118.97,12133.00
430,860.73,1120.75,13918.00
431,860.86,1122.53,16532.00
432,860.99,1124.30,19731.00
433,861.12,1126.08,22439.00
434,861.25,1127.85,23977.00
435,861.38,1129.62,23713.00
436,861.51,1131.39,21938.00
437,861.65,1133.17,18828.00
438,861.78,1134.93,15641.00
439,861.91,1136.70,12750.00
440,862.04,1138.47,10841.00
441,862.17,1140.24,9652.00
442,862.30,1142.00,8970.00
443,862.43,1143.77,8553.00
444,862.57,1145.53,8408.00
445,862.70,1147.29,8205.00
446,862.83,1149.06,8108.00
447,862.96,1150.82,8144.00
448,863.09,1152.58,8032.00
449,863.22,1154.34,8134.00
450,863.35,1156.09,8176.00
451,863.48,1157.85,8285.00
452,863.61,1159.61,8447.00
453,863.74,1161.36,8774.00
454,863.88,1163.11,9343.00
455,864.01,1164.87,9935.00
456,864.14,1166.62,10421.00
457,864.27,1168.37,10712.00
458,864.40,1170.12,10586.00
459,864.53,1171.87,10236.00
460,864.66,1173.62,9820.00
461,864.79,1175.36,9373.00
462,864.92,1177.11,9181.00
463,865.05,1178.85,9212.00
464,865.18,1180.60,9527.00
465,865.31,1182.34,9721.00
466,865.44,1184.08,9803.00
467,865.57,1185.82,9719.00
468,865.70,1187.56,9597.00
469,865.83,1189.30,9295.00
470,865.96,1191.04,8962.00
471,866.10,1192.78,8580.00
472,866.23,1194.51,8354.00
473,866.36,1196.25,8260.00
474,866.49,1197.98,8057.00
475,866.62,1199.71,8062.00
476,866.75,1201.45,8130.00
477,866.88,1203.18,8208.00
478,867.01,1204.91,8242.00
479,867.14,1206.64,8176.00
480,867.27,1208.36,8106.00
481,867.40,1210.09,7920.00
482,867.53,1211.82,7745.00
483,867.66,1213.54,7558.00
484,867.79,1215.27,7554.00
485,867.92,1216.99,7529.00
486,868.04,1218.71,7543.00
487,868.17,1220.43,7560.00
488,868.30,1222.15,7516.00
489,868.43,1223.87,7483.00
490,868.56,1225.59,7408.00
491,868.69,1227.31,7316.00
492,868.82,1229.02,7216.00
493,868.95,1230.74,7239.00
494,869.08,1232.45,7213.00
495,869.21,1234.16,7149.00
496,869.34,1235.88,7157.00
497,869.47,1237.59,7164.00
498,869.60,1239.30,7204.00
499,869.73,1241.01,7165.00
500,869.86,1242.71,7250.00
501,869.99,1244.42,7255.00
502,870.12,1246.13,7336.00
503,870.24,1247.83,7315.00
504,870.37,1249.54,7433.00
505,870.50,1251.24,7531.00
506,870.63,1252.94,7492.00
507,870.76,1254.64,7638.00
508,870.89,1256.34,7583.00
509,871.02,1258.04,7609.00
510,871.15,1259.74,7718.00
511,871.28,1261.44,7866.00
512,871.41,1263.13,7880.00
513,871.53,1264.83,8011.00
514,871.66,1266.52,8072.00
515,871.79,1268.22,8170.00
516,871.92,1269.91,8216.00
517,872.05,1271.60,8171.00
518,872.18,1273.29,8296.00
519,872.31,1274.98,8259.00
520,872.43,1276.67,8460.00
521,872.56,1278.35,8595.00
522,872.69,1280.04,8927.00
523,872.82,1281.73,9317.00
524,872.95,1283.41,9959.00
525,873.08,1285.09,11490.00
526,873.20,1286.78,14077.00
527,873.33,1288.46,18255.00
528,873.46,1290.14,23334.00
529,873.59,1291.82,27739.00
530,873.72,1293.49,29105.00
531,873.84,1295.17,30473.00
532,873.97,1296.85,28444.00
533,874.10,1298.52,24156.00
534,874.23,1300.20,19446.00
535,874.36,1301.87,15746.00
536,874.48,1303.54,13094.00
537,874.61,1305.21,11546.00
538,874.74,1306.88,10653.00
539,874.87,1308.55,10004.00
540,875.00,1310.22,9550.00
541,875.12,1311.89,9197.00
542,875.25,1313.56,8861.00
543,875.38,1315.22,8581.00
544,875.51,1316.89,8197.00
545,875.63,1318.55,8032.00
546,875.76,1320.21,7937.00
547,875.89,1321.87,7755.00
548,876.02,1323.53,7742.00
549,876.14,1325.19,7533.00
550,876.27,1326.85,7436.00
551,876.40,1328.51,7279.00
552,876.52,1330.16,7164.00
553,876.65,1331.82,7064.00
554,876.78,1333.47,6976.00
555,876.91,1335.13,6958.00
556,877.03,1336.78,6963.00
557,877.16,1338.43,6964.00
558,877.29,1340.08,6913.00
559,877.41,1341.73,6974.00
560,877.54,1343.38,6932.00
561,877.67,1345.03,6946.00
562,877.80,1346.67,6926.00
563,877.92,1348.32,6799.00
564,878.05,1349.96,6780.00
565,878.18,1351.61,6698.00
566,878.30,1353.25,6713.00
567,878.43,1354.89,6698.00
568,878.56,1356.53,6748.00
569,878.68,1358.17,6832.00
570,878.81,1359.81,6880.00
571,878.93,1361.45,7149.00
572,879.06,1363.08,7291.00
573,879.19,1364.72,7522.00
574,879.31,1366.35,7720.00
575,879.44,1367.99,7715.00
576,879.57,1369.62,7672.00
577,879.69,1371.25,7611.00
578,879.82,1372.88,7322.00
579,879.95,1374.51,7044.00
580,880.07,1376.14,6919.00
581,880.20,1377.77,6719.00
582,880.32,1379.39,6578.00
583,880.45,1381.02,6456.00
584,880.58,1382.64,6466.00
585,880.70,1384.27,6305.00
586,880.83,1385.89,6388.00
587,880.95,1387.51,6415.00
588,881.08,1389.13,6289.00
589,881.20,1390.75,6354.00
590,881.33,1392.37,6361.00
591,881.46,1393.99,6430.00
592,881.58,1395.60,6440.00
593,881.71,1397.22,6487.00
594,881.83,1398.83,6546.00
595,881.96,1400.45,6598.00
596,882.08,1402.06,6772.00
597,882.21,1403.67,6932.00
598,882.33,1405.28,7367.00
599,882.46,1406.89,8099.00
600,882.58,1408.50,9194.00
601,882.71,1410.11,10662.00
602,882.84,1411.71,12362.00
603,882.96,1413.32,13752.00
604,883.09,1414.92,14956.00
605,883.21,1416.53,15104.00
606,883.34,1418.13,14741.00
607,883.46,1419.73,13961.00
608,883.59,1421.33,12856.00
609,883.71,1422.93,12199.00
610,883.84,1424.53,11882.00
611,883.96,1426.13,12152.00
612,884.09,1427.72,12947.00
613,884.21,1429.32,14153.00
614,884.33,1430.91,15827.00
615,884.46,1432.51,18205.00
616,884.58,1434.10,20838.00
617,884.71,1435.69,23389.00
618,884.83,1437.28,25362.00
619,884.96,1438.87,26536.00
620,885.08,1440.46,26511.00
621,885.21,1442.05,25447.00
622,885.33,1443.64,23677.00
623,885.45,1445.22,21702.00
624,885.58,1446.81,20178.00
625,885.70,1448.39,18810.00
626,885.83,1449.97,17966.00
627,885.95,1451.55,17658.00
628,886.08,1453.14,17414.00
629,886.20,1454.72,17648.00
630,886.32,1456.29,17709.00
631,886.45,1457.87,18010.00
632,886.57,1459.45,18230.00
633,886.70,1461.02,18179.00
634,886.82,1462.60,17989.00
635,886.94,1464.17,17376.00
636,887.07,1465.75,16601.00
637,887.19,1467.32,15502.00
638,887.31,1468.89,14285.00
639,887.44,1470.46,13191.00
640,887.56,1472.03,12118.00
641,887.68,1473.59,11155.00
642,887.81,1475.16,10326.00
643,887.93,1476.73,9525.00
644,888.06,1478.29,8943.00
645,888.18,1479.86,8512.00
646,888.30,1481.42,8058.00
647,888.43,1482.98,7662.00
648,888.55,1484.54,7314.00
649,888.67,1486.10,7228.00
650,888.79,1487.66,7025.00
651,888.92,1489.22,6823.00
652,889.04,1490.77,6700.00
653,889.16,1492.33,6550.00
654,889.29,1493.88,6449.00
655,889.41,1495.44,6369.00
656,889.53,1496.99,6292.00
657,889.66,1498.54,6217.00
658,889.78,1500.09,6163.00
659,889.90,1501.64,6158.00
660,890.02,1503.19,6036.00
661,890.15,1504.74,5960.00
662,890.27,1506.29,5932.00
663,890.39,1507.83,5911.00
664,890.51,1509.38,5824.00
665,890.64,1510.92,5777.00
666,890.76,1512.47,5804.00
667,890.88,1514.01,5819.00
668,891.00,1515.55,5713.00
669,891.13,1517.09,5742.00
670,891.25,1518.63,5690.00
671,891.37,1520.16,5684.00
672,891.49,1521.70,5675.00
673,891.61,1523.24,5621.00
674,891.74,1524.77,5581.00
675,891.86,1526.31,5625.00
676,891.98,1527.84,5674.00
677,892.10,1529.37,5538.00
678,892.22,1530.90,5557.00
679,892.35,1532.43,5587.00
680,892.47,1533.96,5530.00
681,892.59,1535.49,5525.00
682,892.71,1537.02,5542.00
683,892.83,1538.54,5473.00
684,892.95,1540.07,5496.00
685,893.08,1541.59,5545.00
686,893.20,1543.11,5484.00
687,893.32,1544.64,5494.00
688,893.44,1546.16,5477.00
689,893.56,1547.68,5412.00
690,893.68,1549.20,5410.00
691,893.80,1550.71,5427.00
692,893.92,1552.23,5405.00
693,894.05,1553.75,5366.00
694,894.17,1555.26,5338.00
695,894.29,1556.78,5336.00
696,894.41,1558.29,5372.00
697,894.53,1559.80,5273.00
698,894.65,1561.31,5302.00
699,894.77,1562.82,5312.00
700,894.89,1564.33,5267.00
701,895.01,1565.84,5242.00
702,895.13,1567.35,5275.00
703,895.26,1568.85,5294.00
704,895.38,1570.36,5317.00
705,895.50,1571.86,5300.00
706,895.62,1573.36,5279.00
707,895.74,1574.87,5245.00
708,895.86,1576.37,5308.00
709,895.98,1577.87,5234.00
710,896.10,1579.37,5178.00
711,896.22,1580.87,5102.00
712,896.34,1582.36,5058.00
713,896.46,1583.86,5077.00
714,896.58,1585.35,5007.00
715,896.70,1586.85,4999.00
716,896.82,1588.34,5007.00
717,896.94,1589.83,5024.00
718,897.06,1591.32,4979.00
719,897.18,1592.81,4929.00
720,897.30,1594.30,4985.00
721,897.42,1595.79,4971.00
722,897.54,1597.28,4967.00
723,897.66,1598.76,5074.00
724,897.78,1600.25,5089.00
725,897.90,1601.73,5139.00
726,898.02,1603.22,5340.00
727,898.14,1604.70,5393.00
728,898.26,1606.18,5566.00
729,898.38,1607.66,5741.00
730,898.50,1609.14,5947.00
