ENLIGHTEN Version,1.7.2
Measurement ID,20190905-084043-749934-WP-00340
Serial Number,WP-00340
Label,08:40:43 WP-00340
Integration Time,500
Timestamp,2019-09-05 08:40:43.749934
Note,
Temperature,10.010854111966182
CCD C0,801.7174072265625
CCD C1,0.14122000336647034
CCD C2,-5.609700110653648e-06
CCD C3,-8.541699791919655e-09
CCD Offset,0
CCD Gain,1.9
Laser Wavelength,785
Laser Enable,True
Laser Power,100
Laser Temperature,0
Pixel Count,1024

Pixel,Wavelength,Wavenumber,Processed
0,801.72,265.63,685.00
1,801.86,267.83,858.00
2,802.00,270.02,1111.00
3,802.14,272.22,1412.00
4,802.28,274.41,1815.00
5,802.42,276.60,2342.00
6,802.56,278.80,2990.00
7,802.71,280.99,3805.00
8,802.85,283.18,4811.00
9,802.99,285.37,5901.00
10,803.13,287.55,7183.00
11,803.27,289.74,8541.00
12,803.41,291.93,9835.00
13,803.55,294.11,11176.00
14,803.69,296.30,12218.00
15,803.83,298.48,13221.00
16,803.98,300.66,14068.00
17,804.12,302.84,14648.00
18,804.26,305.02,14908.00
19,804.40,307.20,15164.00
20,804.54,309.38,15280.00
21,804.68,311.56,15363.00
22,804.82,313.74,15308.00
23,804.96,315.91,15301.00
24,805.10,318.09,15390.00
25,805.24,320.26,15324.00
26,805.39,322.43,15449.00
27,805.53,324.61,15483.00
28,805.67,326.78,15464.00
29,805.81,328.95,15544.00
30,805.95,331.12,15624.00
31,806.09,333.28,15662.00
32,806.23,335.45,15758.00
33,806.37,337.62,15700.00
34,806.51,339.78,15681.00
35,806.65,341.95,15801.00
36,806.79,344.11,15723.00
37,806.93,346.27,15802.00
38,807.08,348.43,15906.00
39,807.22,350.59,16052.00
40,807.36,352.75,16008.00
41,807.50,354.91,15917.00
42,807.64,357.07,15978.00
43,807.78,359.23,16040.00
44,807.92,361.38,15981.00
45,808.06,363.54,15971.00
46,808.20,365.69,15858.00
47,808.34,367.84,15816.00
48,808.48,370.00,15717.00
49,808.62,372.15,15632.00
50,808.76,374.30,15843.00
51,808.90,376.45,15712.00
52,809.04,378.59,15932.00
53,809.19,380.74,15866.00
54,809.33,382.89,16060.00
55,809.47,385.03,15853.00
56,809.61,387.18,16017.00
57,809.75,389.32,16012.00
58,809.89,391.46,16054.00
59,810.03,393.60,16048.00
60,810.17,395.74,16094.00
61,810.31,397.88,16267.00
62,810.45,400.02,16238.00
63,810.59,402.16,16331.00
64,810.73,404.29,16486.00
65,810.87,406.43,16574.00
66,811.01,408.57,16796.00
67,811.15,410.70,16941.00
68,811.29,412.83,17343.00
69,811.43,414.96,17447.00
70,811.57,417.09,17774.00
71,811.71,419.22,17981.00
72,811.85,421.35,18023.00
73,811.99,423.48,18323.00
74,812.13,425.61,18325.00
75,812.27,427.73,18487.00
76,812.41,429.86,18774.00
77,812.55,431.98,19105.00
78,812.69,434.11,19242.00
79,812.83,436.23,19547.00
80,812.97,438.35,19742.00
81,813.11,440.47,19916.00
82,813.26,442.59,20067.00
83,813.40,444.71,20111.00
84,813.54,446.82,20231.00
85,813.68,448.94,20123.00
86,813.82,451.05,19776.00
87,813.96,453.17,19712.00
88,814.10,455.28,19157.00
89,814.24,457.39,18898.00
90,814.38,459.51,18592.00
91,814.52,461.62,17969.00
92,814.66,463.73,17721.00
93,814.80,465.83,17351.00
94,814.94,467.94,16984.00
95,815.08,470.05,16823.00
96,815.22,472.15,16722.00
97,815.36,474.26,16450.00
98,815.50,476.36,16347.00
99,815.63,478.47,16214.00
100,815.77,480.57,16088.00
101,815.91,482.67,16145.00
102,816.05,484.77,15905.00
103,816.19,486.87,15927.00
104,816.33,488.97,15946.00
105,816.47,491.06,16073.00
106,816.61,493.16,16054.00
107,816.75,495.25,16075.00
108,816.89,497.35,15968.00
109,817.03,499.44,15998.00
110,817.17,501.53,16002.00
111,817.31,503.62,15936.00
112,817.45,505.71,15899.00
113,817.59,507.80,15873.00
114,817.73,509.89,15955.00
115,817.87,511.98,15989.00
116,818.01,514.07,15866.00
117,818.15,516.15,15917.00
118,818.29,518.24,15822.00
119,818.43,520.32,15833.00
120,818.57,522.40,15810.00
121,818.71,524.48,15755.00
122,818.85,526.56,15833.00
123,818.99,528.64,15753.00
124,819.13,530.72,15714.00
125,819.27,532.80,15832.00
126,819.40,534.88,15766.00
127,819.54,536.95,15805.00
128,819.68,539.03,15879.00
129,819.82,541.10,15778.00
130,819.96,543.17,15936.00
131,820.10,545.24,15887.00
132,820.24,547.32,16071.00
133,820.38,549.39,16118.00
134,820.52,551.45,16025.00
135,820.66,553.52,16240.00
136,820.80,555.59,16105.00
137,820.94,557.66,16215.00
138,821.08,559.72,16316.00
139,821.22,561.78,16443.00
140,821.35,563.85,16423.00
141,821.49,565.91,16598.00
142,821.63,567.97,16727.00
143,821.77,570.03,16870.00
144,821.91,572.09,16895.00
145,822.05,574.15,17127.00
146,822.19,576.21,17268.00
147,822.33,578.26,17547.00
148,822.47,580.32,17844.00
149,822.61,582.37,17922.00
150,822.75,584.42,18129.00
151,822.88,586.48,18285.00
152,823.02,588.53,18565.00
153,823.16,590.58,18679.00
154,823.30,592.63,18995.00
155,823.44,594.68,19040.00
156,823.58,596.72,19406.00
157,823.72,598.77,19451.00
158,823.86,600.82,19826.00
159,824.00,602.86,19967.00
160,824.13,604.90,20222.00
161,824.27,606.95,20281.00
162,824.41,608.99,20350.00
163,824.55,611.03,20387.00
164,824.69,613.07,20144.00
165,824.83,615.11,20001.00
166,824.97,617.15,19752.00
167,825.10,619.18,19587.00
168,825.24,621.22,19305.00
169,825.38,623.25,18997.00
170,825.52,625.29,18869.00
171,825.66,627.32,19013.00
172,825.80,629.35,19019.00
173,825.94,631.38,19121.00
174,826.07,633.41,19058.00
175,826.21,635.44,18804.00
176,826.35,637.47,18550.00
177,826.49,639.50,17990.00
178,826.63,641.52,17545.00
179,826.77,643.55,17212.00
180,826.91,645.57,16984.00
181,827.04,647.60,16845.00
182,827.18,649.62,16571.00
183,827.32,651.64,16653.00
184,827.46,653.66,16523.00
185,827.60,655.68,16554.00
186,827.74,657.70,16563.00
187,827.87,659.71,16648.00
188,828.01,661.73,16682.00
189,828.15,663.75,16607.00
190,828.29,665.76,16597.00
191,828.43,667.77,16584.00
192,828.56,669.79,16483.00
193,828.70,671.80,16555.00
194,828.84,673.81,16568.00
195,828.98,675.82,16452.00
196,829.12,677.83,16408.00
197,829.25,679.83,16375.00
198,829.39,681.84,16347.00
199,829.53,683.84,16310.00
200,829.67,685.85,16274.00
201,829.81,687.85,16342.00
202,829.94,689.86,16324.00
203,830.08,691.86,16279.00
204,830.22,693.86,16314.00
205,830.36,695.86,16324.00
206,830.50,697.86,16393.00
207,830.63,699.85,16427.00
208,830.77,701.85,16512.00
209,830.91,703.85,16493.00
210,831.05,705.84,16602.00
211,831.18,707.84,16566.00
212,831.32,709.83,16539.00
213,831.46,711.82,16634.00
214,831.60,713.81,16537.00
215,831.74,715.80,16510.00
216,831.87,717.79,16615.00
217,832.01,719.78,16594.00
218,832.15,721.76,16603.00
219,832.29,723.75,16507.00
220,832.42,725.74,16554.00
221,832.56,727.72,16615.00
222,832.70,729.70,16523.00
223,832.84,731.68,16402.00
224,832.97,733.67,16432.00
225,833.11,735.65,16478.00
226,833.25,737.62,16377.00
227,833.39,739.60,16463.00
228,833.52,741.58,16714.00
229,833.66,743.56,16866.00
230,833.80,745.53,17091.00
231,833.93,747.51,17524.00
232,834.07,749.48,17648.00
233,834.21,751.45,17667.00
234,834.35,753.42,17687.00
235,834.48,755.39,17437.00
236,834.62,757.36,17263.00
237,834.76,759.33,16990.00
238,834.89,761.30,16876.00
239,835.03,763.26,16665.00
240,835.17,765.23,16638.00
241,835.31,767.19,16602.00
242,835.44,769.16,16571.00
243,835.58,771.12,16588.00
244,835.72,773.08,16693.00
245,835.85,775.04,16775.00
246,835.99,777.00,16986.00
247,836.13,778.96,17397.00
248,836.26,780.92,17844.00
249,836.40,782.87,18363.00
250,836.54,784.83,18725.00
251,836.68,786.78,18846.00
252,836.81,788.74,18713.00
253,836.95,790.69,18220.00
254,837.09,792.64,17886.00
255,837.22,794.59,17425.00
256,837.36,796.54,17317.00
257,837.50,798.49,17235.00
258,837.63,800.44,17205.00
259,837.77,802.38,17166.00
260,837.91,804.33,17127.00
261,838.04,806.27,17232.00
262,838.18,808.22,17393.00
263,838.31,810.16,17429.00
264,838.45,812.10,17667.00
265,838.59,814.04,17936.00
266,838.72,815.98,18293.00
267,838.86,817.92,18510.00
268,839.00,819.86,18826.00
269,839.13,821.80,19086.00
270,839.27,823.73,19435.00
271,839.41,825.67,19648.00
272,839.54,827.60,19560.00
273,839.68,829.53,19623.00
274,839.81,831.47,19927.00
275,839.95,833.40,19963.00
276,840.09,835.33,19997.00
277,840.22,837.26,20136.00
278,840.36,839.18,19996.00
279,840.50,841.11,19832.00
280,840.63,843.04,19608.00
281,840.77,844.96,19305.00
282,840.90,846.89,18964.00
283,841.04,848.81,18732.00
284,841.18,850.73,18495.00
285,841.31,852.65,18287.00
286,841.45,854.57,18221.00
287,841.58,856.49,18075.00
288,841.72,858.41,17949.00
289,841.86,860.33,17803.00
290,841.99,862.24,17619.00
291,842.13,864.16,17683.00
292,842.26,866.07,17657.00
293,842.40,867.99,17496.00
294,842.53,869.90,17523.00
295,842.67,871.81,17662.00
296,842.81,873.72,17642.00
297,842.94,875.63,17775.00
298,843.08,877.54,17741.00
299,843.21,879.44,17666.00
300,843.35,881.35,17744.00
301,843.48,883.26,17549.00
302,843.62,885.16,17702.00
303,843.75,887.06,17651.00
304,843.89,888.97,17601.00
305,844.03,890.87,17386.00
306,844.16,892.77,17115.00
307,844.30,894.67,17101.00
308,844.43,896.57,16867.00
309,844.57,898.46,16843.00
310,844.70,900.36,16575.00
311,844.84,902.26,16387.00
312,844.97,904.15,16299.00
313,845.11,906.04,16261.00
314,845.24,907.94,16061.00
315,845.38,909.83,16050.00
316,845.51,911.72,15936.00
317,845.65,913.61,15877.00
318,845.78,915.50,15803.00
319,845.92,917.38,15855.00
320,846.05,919.27,15974.00
321,846.19,921.16,15789.00
322,846.32,923.04,15745.00
323,846.46,924.92,15787.00
324,846.59,926.81,15747.00
325,846.73,928.69,15497.00
326,846.86,930.57,15536.00
327,847.00,932.45,15462.00
328,847.13,934.33,15447.00
329,847.27,936.20,15601.00
330,847.40,938.08,15662.00
331,847.54,939.96,15852.00
332,847.67,941.83,15909.00
333,847.81,943.71,16005.00
334,847.94,945.58,16015.00
335,848.08,947.45,16142.00
336,848.21,949.32,16092.00
337,848.34,951.19,15989.00
338,848.48,953.06,16154.00
339,848.61,954.93,15997.00
340,848.75,956.79,15939.00
341,848.88,958.66,15687.00
342,849.02,960.52,15359.00
343,849.15,962.39,15257.00
344,849.29,964.25,14935.00
345,849.42,966.11,14975.00
346,849.55,967.97,14879.00
347,849.69,969.83,14774.00
348,849.82,971.69,14789.00
349,849.96,973.55,14718.00
350,850.09,975.41,14724.00
351,850.23,977.26,14810.00
352,850.36,979.12,14566.00
353,850.49,980.97,14705.00
354,850.63,982.82,14602.00
355,850.76,984.68,14580.00
356,850.90,986.53,14699.00
357,851.03,988.38,14667.00
358,851.16,990.23,14726.00
359,851.30,992.07,14913.00
360,851.43,993.92,15099.00
361,851.56,995.77,15436.00
362,851.70,997.61,15749.00
363,851.83,999.46,15991.00
364,851.97,1001.30,16364.00
365,852.10,1003.14,16263.00
366,852.23,1004.98,16218.00
367,852.37,1006.82,15704.00
368,852.50,1008.66,15464.00
369,852.63,1010.50,15075.00
370,852.77,1012.34,14749.00
371,852.90,1014.17,14622.00
372,853.04,1016.01,14719.00
373,853.17,1017.84,14515.00
374,853.30,1019.68,14560.00
375,853.44,1021.51,14526.00
376,853.57,1023.34,14581.00
377,853.70,1025.17,14582.00
378,853.84,1027.00,14559.00
379,853.97,1028.83,14528.00
380,854.10,1030.65,14515.00
381,854.24,1032.48,14553.00
382,854.37,1034.31,14646.00
383,854.50,1036.13,14629.00
384,854.64,1037.95,14719.00
385,854.77,1039.77,14729.00
386,854.90,1041.60,14739.00
387,855.03,1043.42,14812.00
388,855.17,1045.24,15091.00
389,855.30,1047.05,15337.00
390,855.43,1048.87,15949.00
391,855.57,1050.69,16651.00
392,855.70,1052.50,18481.00
393,855.83,1054.32,20935.00
394,855.96,1056.13,24284.00
395,856.10,1057.94,27742.00
396,856.23,1059.75,30320.00
397,856.36,1061.56,31442.00
398,856.50,1063.37,30648.00
399,856.63,1065.18,28067.00
400,856.76,1066.99,24917.00
401,856.89,1068.80,21776.00
402,857.03,1070.60,19558.00
403,857.16,1072.41,18295.00
404,857.29,1074.21,17598.00
405,857.42,1076.01,17195.00
406,857.56,1077.81,17045.00
407,857.69,1079.61,16991.00
408,857.82,1081.41,16958.00
409,857.95,1083.21,16729.00
410,858.09,1085.01,16633.00
411,858.22,1086.81,16539.00
412,858.35,1088.60,16427.00
413,858.48,1090.40,16332.00
414,858.61,1092.19,16259.00
415,858.75,1093.98,15938.00
416,858.88,1095.77,16001.00
417,859.01,1097.56,15603.00
418,859.14,1099.35,15483.00
419,859.28,1101.14,15489.00
420,859.41,1102.93,15320.00
421,859.54,1104.72,15407.00
422,859.67,1106.50,15363.00
423,859.80,1108.29,15647.00
424,859.94,1110.07,15995.00
425,860.07,1111.85,16368.00
426,860.20,1113.63,16941.00
427,860.33,1115.41,17456.00
428,860.46,1117.19,18169.00
429,860.59,1118.97,19463.00
430,860.73,1120.75,21172.00
431,860.86,1122.53,23976.00
432,860.99,1124.30,27297.00
433,861.12,1126.08,30110.00
434,861.25,1127.85,31570.00
435,861.38,1129.62,31522.00
436,861.51,1131.39,29475.00
437,861.65,1133.17,26035.00
438,861.78,1134.93,22552.00
439,861.91,1136.70,19478.00
440,862.04,1138.47,17254.00
441,862.17,1140.24,16020.00
442,862.30,1142.00,15451.00
443,862.43,1143.77,14965.00
444,862.57,1145.53,14743.00
445,862.70,1147.29,14612.00
446,862.83,1149.06,14494.00
447,862.96,1150.82,14492.00
448,863.09,1152.58,14484.00
449,863.22,1154.34,14563.00
450,863.35,1156.09,14745.00
451,863.48,1157.85,14806.00
452,863.61,1159.61,15068.00
453,863.74,1161.36,15438.00
454,863.88,1163.11,16109.00
455,864.01,1164.87,16933.00
456,864.14,1166.62,17408.00
457,864.27,1168.37,17814.00
458,864.40,1170.12,17757.00
459,864.53,1171.87,17473.00
460,864.66,1173.62,17043.00
461,864.79,1175.36,16733.00
462,864.92,1177.11,16760.00
463,865.05,1178.85,17370.00
464,865.18,1180.60,18059.00
465,865.31,1182.34,18734.00
466,865.44,1184.08,18974.00
467,865.57,1185.82,19086.00
468,865.70,1187.56,18633.00
469,865.83,1189.30,18054.00
470,865.96,1191.04,17315.00
471,866.10,1192.78,16743.00
472,866.23,1194.51,16176.00
473,866.36,1196.25,15860.00
474,866.49,1197.98,15617.00
475,866.62,1199.71,15793.00
476,866.75,1201.45,15775.00
477,866.88,1203.18,16069.00
478,867.01,1204.91,16151.00
479,867.14,1206.64,15880.00
480,867.27,1208.36,15810.00
481,867.40,1210.09,15562.00
482,867.53,1211.82,15228.00
483,867.66,1213.54,15021.00
484,867.79,1215.27,14812.00
485,867.92,1216.99,14831.00
486,868.04,1218.71,14683.00
487,868.17,1220.43,14650.00
488,868.30,1222.15,14762.00
489,868.43,1223.87,14553.00
490,868.56,1225.59,14557.00
491,868.69,1227.31,14380.00
492,868.82,1229.02,14285.00
493,868.95,1230.74,14373.00
494,869.08,1232.45,14237.00
495,869.21,1234.16,14188.00
496,869.34,1235.88,14242.00
497,869.47,1237.59,14298.00
498,869.60,1239.30,14298.00
499,869.73,1241.01,14239.00
500,869.86,1242.71,14518.00
501,869.99,1244.42,14525.00
502,870.12,1246.13,14588.00
503,870.24,1247.83,14692.00
504,870.37,1249.54,14768.00
505,870.50,1251.24,14806.00
506,870.63,1252.94,14827.00
507,870.76,1254.64,14902.00
508,870.89,1256.34,14935.00
509,871.02,1258.04,15032.00
510,871.15,1259.74,15060.00
511,871.28,1261.44,15169.00
512,871.41,1263.13,15270.00
513,871.53,1264.83,15442.00
514,871.66,1266.52,15500.00
515,871.79,1268.22,15544.00
516,871.92,1269.91,15702.00
517,872.05,1271.60,15816.00
518,872.18,1273.29,15916.00
519,872.31,1274.98,15890.00
520,872.43,1276.67,16119.00
521,872.56,1278.35,16514.00
522,872.69,1280.04,16873.00
523,872.82,1281.73,17410.00
524,872.95,1283.41,18374.00
525,873.08,1285.09,19834.00
526,873.20,1286.78,22777.00
527,873.33,1288.46,27363.00
528,873.46,1290.14,32827.00
529,873.59,1291.82,37801.00
530,873.72,1293.49,39321.00
531,873.84,1295.17,40842.00
532,873.97,1296.85,38581.00
533,874.10,1298.52,34067.00
534,874.23,1300.20,29188.00
535,874.36,1301.87,24962.00
536,874.48,1303.54,22286.00
537,874.61,1305.21,20481.00
538,874.74,1306.88,19501.00
539,874.87,1308.55,19044.00
540,875.00,1310.22,18594.00
541,875.12,1311.89,18150.00
542,875.25,1313.56,17851.00
543,875.38,1315.22,17703.00
544,875.51,1316.89,17341.00
545,875.63,1318.55,17344.00
546,875.76,1320.21,17170.00
547,875.89,1321.87,17138.00
548,876.02,1323.53,17222.00
549,876.14,1325.19,17153.00
550,876.27,1326.85,17045.00
551,876.40,1328.51,16942.00
552,876.52,1330.16,16858.00
553,876.65,1331.82,16978.00
554,876.78,1333.47,16910.00
555,876.91,1335.13,16758.00
556,877.03,1336.78,16946.00
557,877.16,1338.43,17047.00
558,877.29,1340.08,17151.00
559,877.41,1341.73,17305.00
560,877.54,1343.38,17254.00
561,877.67,1345.03,17407.00
562,877.80,1346.67,17431.00
563,877.92,1348.32,17375.00
564,878.05,1349.96,17237.00
565,878.18,1351.61,17226.00
566,878.30,1353.25,17416.00
567,878.43,1354.89,17133.00
568,878.56,1356.53,17226.00
569,878.68,1358.17,17467.00
570,878.81,1359.81,17518.00
571,878.93,1361.45,17694.00
572,879.06,1363.08,18053.00
573,879.19,1364.72,18247.00
574,879.31,1366.35,18376.00
575,879.44,1367.99,18591.00
576,879.57,1369.62,18504.00
577,879.69,1371.25,18407.00
578,879.82,1372.88,18181.00
579,879.95,1374.51,17789.00
580,880.07,1376.14,17521.00
581,880.20,1377.77,17291.00
582,880.32,1379.39,17285.00
583,880.45,1381.02,16967.00
584,880.58,1382.64,17007.00
585,880.70,1384.27,16902.00
586,880.83,1385.89,16813.00
587,880.95,1387.51,16786.00
588,881.08,1389.13,16764.00
589,881.20,1390.75,16739.00
590,881.33,1392.37,16787.00
591,881.46,1393.99,16720.00
592,881.58,1395.60,16663.00
593,881.71,1397.22,16863.00
594,881.83,1398.83,16922.00
595,881.96,1400.45,17037.00
596,882.08,1402.06,17053.00
597,882.21,1403.67,17359.00
598,882.33,1405.28,17808.00
599,882.46,1406.89,18462.00
600,882.58,1408.50,19724.00
601,882.71,1410.11,21181.00
602,882.84,1411.71,23029.00
603,882.96,1413.32,24529.00
604,883.09,1414.92,25805.00
605,883.21,1416.53,26076.00
606,883.34,1418.13,25668.00
607,883.46,1419.73,24730.00
608,883.59,1421.33,23713.00
609,883.71,1422.93,22923.00
610,883.84,1424.53,22585.00
611,883.96,1426.13,22872.00
612,884.09,1427.72,23658.00
613,884.21,1429.32,24888.00
614,884.33,1430.91,26901.00
615,884.46,1432.51,29399.00
616,884.58,1434.10,32268.00
617,884.71,1435.69,34915.00
618,884.83,1437.28,37173.00
619,884.96,1438.87,38433.00
620,885.08,1440.46,38473.00
621,885.21,1442.05,37275.00
622,885.33,1443.64,35239.00
623,885.45,1445.22,33367.00
624,885.58,1446.81,31615.00
625,885.70,1448.39,30248.00
626,885.83,1449.97,29452.00
627,885.95,1451.55,28786.00
628,886.08,1453.14,28604.00
629,886.20,1454.72,28664.00
630,886.32,1456.29,28736.00
631,886.45,1457.87,29199.00
632,886.57,1459.45,29161.00
633,886.70,1461.02,29142.00
634,886.82,1462.60,28868.00
635,886.94,1464.17,28038.00
636,887.07,1465.75,27082.00
637,887.19,1467.32,25755.00
638,887.31,1468.89,24493.00
639,887.44,1470.46,23211.00
640,887.56,1472.03,21910.00
641,887.68,1473.59,20823.00
642,887.81,1475.16,19784.00
643,887.93,1476.73,19059.00
644,888.06,1478.29,18272.00
645,888.18,1479.86,17650.00
646,888.30,1481.42,17151.00
647,888.43,1482.98,16859.00
648,888.55,1484.54,16492.00
649,888.67,1486.10,16227.00
650,888.79,1487.66,15985.00
651,888.92,1489.22,15743.00
652,889.04,1490.77,15597.00
653,889.16,1492.33,15445.00
654,889.29,1493.88,15232.00
655,889.41,1495.44,15116.00
656,889.53,1496.99,15057.00
657,889.66,1498.54,14988.00
658,889.78,1500.09,14808.00
659,889.90,1501.64,14756.00
660,890.02,1503.19,14741.00
661,890.15,1504.74,14648.00
662,890.27,1506.29,14548.00
663,890.39,1507.83,14517.00
664,890.51,1509.38,14414.00
665,890.64,1510.92,14374.00
666,890.76,1512.47,14473.00
667,890.88,1514.01,14350.00
668,891.00,1515.55,14355.00
669,891.13,1517.09,14354.00
670,891.25,1518.63,14277.00
671,891.37,1520.16,14311.00
672,891.49,1521.70,14188.00
673,891.61,1523.24,14070.00
674,891.74,1524.77,14091.00
675,891.86,1526.31,14077.00
676,891.98,1527.84,14029.00
677,892.10,1529.37,14159.00
678,892.22,1530.90,14073.00
679,892.35,1532.43,14003.00
680,892.47,1533.96,14064.00
681,892.59,1535.49,14013.00
682,892.71,1537.02,14020.00
683,892.83,1538.54,13918.00
684,892.95,1540.07,14003.00
685,893.08,1541.59,13898.00
686,893.20,1543.11,13902.00
687,893.32,1544.64,13853.00
688,893.44,1546.16,13885.00
689,893.56,1547.68,13757.00
690,893.68,1549.20,13696.00
691,893.80,1550.71,13739.00
692,893.92,1552.23,13661.00
693,894.05,1553.75,13703.00
694,894.17,1555.26,13691.00
695,894.29,1556.78,13605.00
696,894.41,1558.29,13595.00
697,894.53,1559.80,13491.00
698,894.65,1561.31,13429.00
699,894.77,1562.82,13415.00
700,894.89,1564.33,13442.00
701,895.01,1565.84,13490.00
702,895.13,1567.35,13609.00
703,895.26,1568.85,13568.00
704,895.38,1570.36,13643.00
705,895.50,1571.86,13672.00
706,895.62,1573.36,13638.00
707,895.74,1574.87,13522.00
708,895.86,1576.37,13476.00
709,895.98,1577.87,13296.00
710,896.10,1579.37,13362.00
711,896.22,1580.87,13203.00
712,896.34,1582.36,13046.00
713,896.46,1583.86,12917.00
