ENLIGHTEN Version,1.7.2
Measurement ID,20190905-083932-737261-WP-00340
Serial Number,WP-00340
Label,08:39:32 WP-00340
Integration Time,500
Timestamp,2019-09-05 08:39:32.737261
Note,
Temperature,9.99381697227335
CCD C0,801.7174072265625
CCD C1,0.14122000336647034
CCD C2,-5.609700110653648e-06
CCD C3,-8.541699791919655e-09
CCD Offset,0
CCD Gain,1.9
Laser Wavelength,785
Laser Enable,True
Laser Power,100
Laser Temperature,0
Pixel Count,1024

Pixel,Wavelength,Wavenumber,Processed
0,801.72,265.63,719.00
1,801.86,267.83,887.00
2,802.00,270.02,1152.00
3,802.14,272.22,1472.00
4,802.28,274.41,1910.00
5,802.42,276.60,2482.00
6,802.56,278.80,3143.00
7,802.71,280.99,4058.00
8,802.85,283.18,5127.00
9,802.99,285.37,6272.00
10,803.13,287.55,7729.00
11,803.27,289.74,9074.00
12,803.41,291.93,10464.00
13,803.55,294.11,11781.00
14,803.69,296.30,12997.00
15,803.83,298.48,13989.00
16,803.98,300.66,14663.00
17,804.12,302.84,15333.00
18,804.26,305.02,15673.00
19,804.40,307.20,15983.00
20,804.54,309.38,16168.00
21,804.68,311.56,16239.00
22,804.82,313.74,16212.00
23,804.96,315.91,16260.00
24,805.10,318.09,16290.00
25,805.24,320.26,16184.00
26,805.39,322.43,16311.00
27,805.53,324.61,16410.00
28,805.67,326.78,16411.00
29,805.81,328.95,16495.00
30,805.95,331.12,16579.00
31,806.09,333.28,16634.00
32,806.23,335.45,16683.00
33,806.37,337.62,16700.00
34,806.51,339.78,16636.00
35,806.65,341.95,16752.00
36,806.79,344.11,16699.00
37,806.93,346.27,16834.00
38,807.08,348.43,16880.00
39,807.22,350.59,16876.00
40,807.36,352.75,16818.00
41,807.50,354.91,16885.00
42,807.64,357.07,16885.00
43,807.78,359.23,16887.00
44,807.92,361.38,16940.00
45,808.06,363.54,16864.00
46,808.20,365.69,16837.00
47,808.34,367.84,16727.00
48,808.48,370.00,16672.00
49,808.62,372.15,16785.00
50,808.76,374.30,16745.00
51,808.90,376.45,16921.00
52,809.04,378.59,16880.00
53,809.19,380.74,17021.00
54,809.33,382.89,17022.00
55,809.47,385.03,17094.00
56,809.61,387.18,17097.00
57,809.75,389.32,17094.00
58,809.89,391.46,17182.00
59,810.03,393.60,17161.00
60,810.17,395.74,17232.00
61,810.31,397.88,17340.00
62,810.45,400.02,17426.00
63,810.59,402.16,17608.00
64,810.73,404.29,17771.00
65,810.87,406.43,17872.00
66,811.01,408.57,18022.00
67,811.15,410.70,18116.00
68,811.29,412.83,18338.00
69,811.43,414.96,18625.00
70,811.57,417.09,18942.00
71,811.71,419.22,19092.00
72,811.85,421.35,19447.00
73,811.99,423.48,19387.00
74,812.13,425.61,19840.00
75,812.27,427.73,20097.00
76,812.41,429.86,20366.00
77,812.55,431.98,20747.00
78,812.69,434.11,20858.00
79,812.83,436.23,21238.00
80,812.97,438.35,21742.00
81,813.11,440.47,21827.00
82,813.26,442.59,22033.00
83,813.40,444.71,22159.00
84,813.54,446.82,22273.00
85,813.68,448.94,22192.00
86,813.82,451.05,21889.00
87,813.96,453.17,21635.00
88,814.10,455.28,21255.00
89,814.24,457.39,20771.00
90,814.38,459.51,20163.00
91,814.52,461.62,19748.00
92,814.66,463.73,19351.00
93,814.80,465.83,18965.00
94,814.94,467.94,18614.00
95,815.08,470.05,18188.00
96,815.22,472.15,18107.00
97,815.36,474.26,17770.00
98,815.50,476.36,17621.00
99,815.63,478.47,17340.00
100,815.77,480.57,17309.00
101,815.91,482.67,17301.00
102,816.05,484.77,17155.00
103,816.19,486.87,17222.00
104,816.33,488.97,17108.00
105,816.47,491.06,17115.00
106,816.61,493.16,17092.00
107,816.75,495.25,17051.00
108,816.89,497.35,17087.00
109,817.03,499.44,17055.00
110,817.17,501.53,16985.00
111,817.31,503.62,17053.00
112,817.45,505.71,17035.00
113,817.59,507.80,16940.00
114,817.73,509.89,16911.00
115,817.87,511.98,17075.00
116,818.01,514.07,16946.00
117,818.15,516.15,16838.00
118,818.29,518.24,17036.00
119,818.43,520.32,16927.00
120,818.57,522.40,16886.00
121,818.71,524.48,16899.00
122,818.85,526.56,16956.00
123,818.99,528.64,16861.00
124,819.13,530.72,16824.00
125,819.27,532.80,16910.00
126,819.40,534.88,16846.00
127,819.54,536.95,16847.00
128,819.68,539.03,17019.00
129,819.82,541.10,16950.00
130,819.96,543.17,17180.00
131,820.10,545.24,17007.00
132,820.24,547.32,17117.00
133,820.38,549.39,17164.00
134,820.52,551.45,17239.00
135,820.66,553.52,17368.00
136,820.80,555.59,17342.00
137,820.94,557.66,17500.00
138,821.08,559.72,17563.00
139,821.22,561.78,17552.00
140,821.35,563.85,17699.00
141,821.49,565.91,17829.00
142,821.63,567.97,18054.00
143,821.77,570.03,18069.00
144,821.91,572.09,18337.00
145,822.05,574.15,18531.00
146,822.19,576.21,18660.00
147,822.33,578.26,18913.00
148,822.47,580.32,19041.00
149,822.61,582.37,19248.00
150,822.75,584.42,19487.00
151,822.88,586.48,19760.00
152,823.02,588.53,20077.00
153,823.16,590.58,20313.00
154,823.30,592.63,20520.00
155,823.44,594.68,20732.00
156,823.58,596.72,21177.00
157,823.72,598.77,21338.00
158,823.86,600.82,21659.00
159,824.00,602.86,22080.00
160,824.13,604.90,22214.00
161,824.27,606.95,22351.00
162,824.41,608.99,22362.00
163,824.55,611.03,22301.00
164,824.69,613.07,22257.00
165,824.83,615.11,21915.00
166,824.97,617.15,21792.00
167,825.10,619.18,21396.00
168,825.24,621.22,21055.00
169,825.38,623.25,20623.00
170,825.52,625.29,20604.00
171,825.66,627.32,20344.00
172,825.80,629.35,20094.00
173,825.94,631.38,20198.00
174,826.07,633.41,20032.00
175,826.21,635.44,19661.00
176,826.35,637.47,19290.00
177,826.49,639.50,18984.00
178,826.63,641.52,18628.00
179,826.77,643.55,18191.00
180,826.91,645.57,18004.00
181,827.04,647.60,17937.00
182,827.18,649.62,17779.00
183,827.32,651.64,17690.00
184,827.46,653.66,17642.00
185,827.60,655.68,17648.00
186,827.74,657.70,17735.00
187,827.87,659.71,17490.00
188,828.01,661.73,17719.00
189,828.15,663.75,17631.00
190,828.29,665.76,17600.00
191,828.43,667.77,17572.00
192,828.56,669.79,17576.00
193,828.70,671.80,17572.00
194,828.84,673.81,17433.00
195,828.98,675.82,17326.00
196,829.12,677.83,17376.00
197,829.25,679.83,17392.00
198,829.39,681.84,17418.00
199,829.53,683.84,17498.00
200,829.67,685.85,17302.00
201,829.81,687.85,17321.00
202,829.94,689.86,17353.00
203,830.08,691.86,17258.00
204,830.22,693.86,17281.00
205,830.36,695.86,17289.00
206,830.50,697.86,17330.00
207,830.63,699.85,17296.00
208,830.77,701.85,17434.00
209,830.91,703.85,17536.00
210,831.05,705.84,17392.00
211,831.18,707.84,17573.00
212,831.32,709.83,17442.00
213,831.46,711.82,17511.00
214,831.60,713.81,17578.00
215,831.74,715.80,17543.00
216,831.87,717.79,17542.00
217,832.01,719.78,17577.00
218,832.15,721.76,17606.00
219,832.29,723.75,17486.00
220,832.42,725.74,17525.00
221,832.56,727.72,17509.00
222,832.70,729.70,17327.00
223,832.84,731.68,17341.00
224,832.97,733.67,17368.00
225,833.11,735.65,17436.00
226,833.25,737.62,17317.00
227,833.39,739.60,17290.00
228,833.52,741.58,17545.00
229,833.66,743.56,17601.00
230,833.80,745.53,17700.00
231,833.93,747.51,17996.00
232,834.07,749.48,18127.00
233,834.21,751.45,18136.00
234,834.35,753.42,18106.00
235,834.48,755.39,17924.00
236,834.62,757.36,17819.00
237,834.76,759.33,17696.00
238,834.89,761.30,17461.00
239,835.03,763.26,17495.00
240,835.17,765.23,17422.00
241,835.31,767.19,17353.00
242,835.44,769.16,17488.00
243,835.58,771.12,17374.00
244,835.72,773.08,17461.00
245,835.85,775.04,17350.00
246,835.99,777.00,17728.00
247,836.13,778.96,17855.00
248,836.26,780.92,18308.00
249,836.40,782.87,18518.00
250,836.54,784.83,18742.00
251,836.68,786.78,18918.00
252,836.81,788.74,18744.00
253,836.95,790.69,18453.00
254,837.09,792.64,18270.00
255,837.22,794.59,18038.00
256,837.36,796.54,17998.00
257,837.50,798.49,17766.00
258,837.63,800.44,17869.00
259,837.77,802.38,17908.00
260,837.91,804.33,17946.00
261,838.04,806.27,17952.00
262,838.18,808.22,17988.00
263,838.31,810.16,18034.00
264,838.45,812.10,18167.00
265,838.59,814.04,18354.00
266,838.72,815.98,18624.00
267,838.86,817.92,18706.00
268,839.00,819.86,18961.00
269,839.13,821.80,19287.00
270,839.27,823.73,19437.00
271,839.41,825.67,19514.00
272,839.54,827.60,19478.00
273,839.68,829.53,19693.00
274,839.81,831.47,19702.00
275,839.95,833.40,19727.00
276,840.09,835.33,19753.00
277,840.22,837.26,19883.00
278,840.36,839.18,19970.00
279,840.50,841.11,19569.00
280,840.63,843.04,19874.00
281,840.77,844.96,19470.00
282,840.90,846.89,19077.00
283,841.04,848.81,19008.00
284,841.18,850.73,18881.00
285,841.31,852.65,18828.00
286,841.45,854.57,18755.00
287,841.58,856.49,18664.00
288,841.72,858.41,18605.00
289,841.86,860.33,18483.00
290,841.99,862.24,18423.00
291,842.13,864.16,18468.00
292,842.26,866.07,18274.00
293,842.40,867.99,18280.00
294,842.53,869.90,18342.00
295,842.67,871.81,18167.00
296,842.81,873.72,18326.00
297,842.94,875.63,18509.00
298,843.08,877.54,18413.00
299,843.21,879.44,18344.00
300,843.35,881.35,18376.00
301,843.48,883.26,18443.00
302,843.62,885.16,18330.00
303,843.75,887.06,18333.00
304,843.89,888.97,18251.00
305,844.03,890.87,18154.00
306,844.16,892.77,17939.00
307,844.30,894.67,17688.00
308,844.43,896.57,17723.00
309,844.57,898.46,17490.00
310,844.70,900.36,17380.00
311,844.84,902.26,17244.00
312,844.97,904.15,17144.00
313,845.11,906.04,16946.00
314,845.24,907.94,16964.00
315,845.38,909.83,16950.00
316,845.51,911.72,16877.00
317,845.65,913.61,16777.00
318,845.78,915.50,16740.00
319,845.92,917.38,16710.00
320,846.05,919.27,16676.00
321,846.19,921.16,16619.00
322,846.32,923.04,16591.00
323,846.46,924.92,16531.00
324,846.59,926.81,16431.00
325,846.73,928.69,16364.00
326,846.86,930.57,16438.00
327,847.00,932.45,16278.00
328,847.13,934.33,16242.00
329,847.27,936.20,16385.00
330,847.40,938.08,16341.00
331,847.54,939.96,16493.00
332,847.67,941.83,16508.00
333,847.81,943.71,16463.00
334,847.94,945.58,16532.00
335,848.08,947.45,16605.00
336,848.21,949.32,16606.00
337,848.34,951.19,16617.00
338,848.48,953.06,16621.00
339,848.61,954.93,16537.00
340,848.75,956.79,16373.00
341,848.88,958.66,16214.00
342,849.02,960.52,16022.00
343,849.15,962.39,15978.00
344,849.29,964.25,15725.00
345,849.42,966.11,15656.00
346,849.55,967.97,15626.00
347,849.69,969.83,15666.00
348,849.82,971.69,15611.00
349,849.96,973.55,15501.00
350,850.09,975.41,15483.00
351,850.23,977.26,15409.00
352,850.36,979.12,15470.00
353,850.49,980.97,15396.00
354,850.63,982.82,15398.00
355,850.76,984.68,15369.00
356,850.90,986.53,15449.00
357,851.03,988.38,15506.00
358,851.16,990.23,15489.00
359,851.30,992.07,15632.00
360,851.43,993.92,15668.00
361,851.56,995.77,15907.00
362,851.70,997.61,16197.00
363,851.83,999.46,16392.00
364,851.97,1001.30,16513.00
365,852.10,1003.14,16666.00
366,852.23,1004.98,16504.00
367,852.37,1006.82,16073.00
368,852.50,1008.66,15919.00
369,852.63,1010.50,15656.00
370,852.77,1012.34,15510.00
371,852.90,1014.17,15548.00
372,853.04,1016.01,15409.00
373,853.17,1017.84,15357.00
374,853.30,1019.68,15481.00
375,853.44,1021.51,15413.00
376,853.57,1023.34,15388.00
377,853.70,1025.17,15369.00
378,853.84,1027.00,15348.00
379,853.97,1028.83,15340.00
380,854.10,1030.65,15338.00
381,854.24,1032.48,15432.00
382,854.37,1034.31,15552.00
383,854.50,1036.13,15506.00
384,854.64,1037.95,15611.00
385,854.77,1039.77,15637.00
386,854.90,1041.60,15662.00
387,855.03,1043.42,15696.00
388,855.17,1045.24,15978.00
389,855.30,1047.05,16316.00
390,855.43,1048.87,16862.00
391,855.57,1050.69,17837.00
392,855.70,1052.50,19658.00
393,855.83,1054.32,22343.00
394,855.96,1056.13,26024.00
395,856.10,1057.94,29976.00
396,856.23,1059.75,32966.00
397,856.36,1061.56,34078.00
398,856.50,1063.37,33339.00
399,856.63,1065.18,30869.00
400,856.76,1066.99,27203.00
401,856.89,1068.80,23509.00
402,857.03,1070.60,20867.00
403,857.16,1072.41,19442.00
404,857.29,1074.21,18686.00
405,857.42,1076.01,18319.00
406,857.56,1077.81,17975.00
407,857.69,1079.61,18003.00
408,857.82,1081.41,17939.00
409,857.95,1083.21,17728.00
410,858.09,1085.01,17650.00
411,858.22,1086.81,17593.00
412,858.35,1088.60,17340.00
413,858.48,1090.40,17230.00
414,858.61,1092.19,17135.00
415,858.75,1093.98,16912.00
416,858.88,1095.77,16752.00
417,859.01,1097.56,16543.00
418,859.14,1099.35,16352.00
419,859.28,1101.14,16231.00
420,859.41,1102.93,16136.00
421,859.54,1104.72,16193.00
422,859.67,1106.50,16225.00
423,859.80,1108.29,16449.00
424,859.94,1110.07,16594.00
425,860.07,1111.85,17043.00
426,860.20,1113.63,17517.00
427,860.33,1115.41,18000.00
428,860.46,1117.19,18966.00
429,860.59,1118.97,20227.00
430,860.73,1120.75,22341.00
431,860.86,1122.53,25451.00
432,860.99,1124.30,29134.00
433,861.12,1126.08,32608.00
434,861.25,1127.85,34628.00
435,861.38,1129.62,34785.00
436,861.51,1131.39,32502.00
437,861.65,1133.17,28954.00
438,861.78,1134.93,24774.00
439,861.91,1136.70,21220.00
440,862.04,1138.47,18676.00
441,862.17,1140.24,17292.00
442,862.30,1142.00,16345.00
443,862.43,1143.77,15832.00
444,862.57,1145.53,15662.00
445,862.70,1147.29,15489.00
446,862.83,1149.06,15414.00
447,862.96,1150.82,15433.00
448,863.09,1152.58,15380.00
449,863.22,1154.34,15453.00
450,863.35,1156.09,15485.00
451,863.48,1157.85,15548.00
452,863.61,1159.61,15829.00
453,863.74,1161.36,16284.00
454,863.88,1163.11,16953.00
455,864.01,1164.87,17733.00
456,864.14,1166.62,18341.00
457,864.27,1168.37,18678.00
458,864.40,1170.12,18765.00
459,864.53,1171.87,18401.00
460,864.66,1173.62,17758.00
461,864.79,1175.36,17321.00
462,864.92,1177.11,17197.00
463,865.05,1178.85,17340.00
464,865.18,1180.60,17635.00
465,865.31,1182.34,17981.00
466,865.44,1184.08,18201.00
467,865.57,1185.82,18136.00
468,865.70,1187.56,17886.00
469,865.83,1189.30,17513.00
470,865.96,1191.04,16967.00
471,866.10,1192.78,16632.00
472,866.23,1194.51,16316.00
473,866.36,1196.25,16043.00
474,866.49,1197.98,15950.00
475,866.62,1199.71,15894.00
476,866.75,1201.45,15973.00
477,866.88,1203.18,16013.00
478,867.01,1204.91,16147.00
479,867.14,1206.64,16128.00
480,867.27,1208.36,16021.00
481,867.40,1210.09,15809.00
482,867.53,1211.82,15520.00
483,867.66,1213.54,15437.00
484,867.79,1215.27,15342.00
485,867.92,1216.99,15335.00
486,868.04,1218.71,15175.00
487,868.17,1220.43,15316.00
488,868.30,1222.15,15276.00
489,868.43,1223.87,15144.00
490,868.56,1225.59,15128.00
491,868.69,1227.31,15009.00
492,868.82,1229.02,14989.00
493,868.95,1230.74,15088.00
494,869.08,1232.45,14979.00
495,869.21,1234.16,14970.00
496,869.34,1235.88,14958.00
497,869.47,1237.59,14945.00
498,869.60,1239.30,14897.00
499,869.73,1241.01,15030.00
500,869.86,1242.71,14979.00
501,869.99,1244.42,15116.00
502,870.12,1246.13,15159.00
503,870.24,1247.83,15295.00
504,870.37,1249.54,15382.00
505,870.50,1251.24,15402.00
506,870.63,1252.94,15385.00
507,870.76,1254.64,15590.00
508,870.89,1256.34,15598.00
509,871.02,1258.04,15734.00
510,871.15,1259.74,15824.00
511,871.28,1261.44,15941.00
512,871.41,1263.13,16208.00
513,871.53,1264.83,16168.00
514,871.66,1266.52,16322.00
515,871.79,1268.22,16484.00
516,871.92,1269.91,16506.00
517,872.05,1271.60,16675.00
518,872.18,1273.29,16665.00
519,872.31,1274.98,16750.00
520,872.43,1276.67,16918.00
521,872.56,1278.35,17133.00
522,872.69,1280.04,17508.00
523,872.82,1281.73,18070.00
524,872.95,1283.41,19098.00
525,873.08,1285.09,20653.00
526,873.20,1286.78,23739.00
527,873.33,1288.46,28680.00
528,873.46,1290.14,34836.00
529,873.59,1291.82,40379.00
530,873.72,1293.49,42373.00
531,873.84,1295.17,44366.00
532,873.97,1296.85,42175.00
533,874.10,1298.52,37349.00
534,874.23,1300.20,31761.00
535,874.36,1301.87,26974.00
536,874.48,1303.54,23570.00
537,874.61,1305.21,21799.00
538,874.74,1306.88,20582.00
539,874.87,1308.55,19965.00
540,875.00,1310.22,19383.00
541,875.12,1311.89,18931.00
542,875.25,1313.56,18677.00
543,875.38,1315.22,18380.00
544,875.51,1316.89,18188.00
545,875.63,1318.55,18006.00
546,875.76,1320.21,17878.00
547,875.89,1321.87,17918.00
548,876.02,1323.53,17656.00
549,876.14,1325.19,17713.00
550,876.27,1326.85,17650.00
551,876.40,1328.51,17547.00
552,876.52,1330.16,17456.00
553,876.65,1331.82,17372.00
554,876.78,1333.47,17262.00
555,876.91,1335.13,17296.00
556,877.03,1336.78,17445.00
557,877.16,1338.43,17574.00
558,877.29,1340.08,17546.00
559,877.41,1341.73,17646.00
560,877.54,1343.38,17762.00
561,877.67,1345.03,17831.00
562,877.80,1346.67,17753.00
563,877.92,1348.32,17758.00
564,878.05,1349.96,17749.00
565,878.18,1351.61,17742.00
566,878.30,1353.25,17749.00
567,878.43,1354.89,17631.00
568,878.56,1356.53,17761.00
569,878.68,1358.17,17908.00
570,878.81,1359.81,18110.00
571,878.93,1361.45,18420.00
572,879.06,1363.08,18635.00
573,879.19,1364.72,18936.00
574,879.31,1366.35,19068.00
575,879.44,1367.99,19297.00
576,879.57,1369.62,19238.00
577,879.69,1371.25,19090.00
578,879.82,1372.88,18856.00
579,879.95,1374.51,18552.00
580,880.07,1376.14,18148.00
581,880.20,1377.77,18034.00
582,880.32,1379.39,17874.00
583,880.45,1381.02,17649.00
584,880.58,1382.64,17622.00
585,880.70,1384.27,17509.00
586,880.83,1385.89,17452.00
587,880.95,1387.51,17320.00
588,881.08,1389.13,17332.00
589,881.20,1390.75,17391.00
590,881.33,1392.37,17362.00
591,881.46,1393.99,17445.00
592,881.58,1395.60,17309.00
593,881.71,1397.22,17450.00
594,881.83,1398.83,17435.00
595,881.96,1400.45,17530.00
596,882.08,1402.06,17817.00
597,882.21,1403.67,17901.00
598,882.33,1405.28,18315.00
599,882.46,1406.89,18979.00
600,882.58,1408.50,20390.00
601,882.71,1410.11,22202.00
602,882.84,1411.71,24147.00
603,882.96,1413.32,25919.00
604,883.09,1414.92,27200.00
605,883.21,1416.53,27559.00
606,883.34,1418.13,27289.00
607,883.46,1419.73,26296.00
608,883.59,1421.33,24911.00
609,883.71,1422.93,23990.00
610,883.84,1424.53,23701.00
611,883.96,1426.13,23818.00
612,884.09,1427.72,24552.00
613,884.21,1429.32,25960.00
614,884.33,1430.91,28084.00
615,884.46,1432.51,30785.00
616,884.58,1434.10,34005.00
617,884.71,1435.69,36927.00
618,884.83,1437.28,39523.00
619,884.96,1438.87,40882.00
620,885.08,1440.46,40941.00
621,885.21,1442.05,39854.00
622,885.33,1443.64,37573.00
623,885.45,1445.22,35370.00
624,885.58,1446.81,33291.00
625,885.70,1448.39,31807.00
626,885.83,1449.97,30538.00
627,885.95,1451.55,30107.00
628,886.08,1453.14,29807.00
629,886.20,1454.72,29947.00
630,886.32,1456.29,30313.00
631,886.45,1457.87,30341.00
632,886.57,1459.45,30719.00
633,886.70,1461.02,30603.00
634,886.82,1462.60,30279.00
635,886.94,1464.17,29495.00
636,887.07,1465.75,28504.00
637,887.19,1467.32,27274.00
638,887.31,1468.89,25910.00
639,887.44,1470.46,24394.00
640,887.56,1472.03,23104.00
641,887.68,1473.59,21930.00
642,887.81,1475.16,20735.00
643,887.93,1476.73,19912.00
644,888.06,1478.29,19081.00
645,888.18,1479.86,18472.00
646,888.30,1481.42,17897.00
647,888.43,1482.98,17481.00
648,888.55,1484.54,17132.00
649,888.67,1486.10,16862.00
650,888.79,1487.66,16596.00
651,888.92,1489.22,16332.00
652,889.04,1490.77,16083.00
653,889.16,1492.33,15919.00
654,889.29,1493.88,15835.00
655,889.41,1495.44,15653.00
656,889.53,1496.99,15728.00
657,889.66,1498.54,15498.00
658,889.78,1500.09,15422.00
659,889.90,1501.64,15333.00
660,890.02,1503.19,15263.00
661,890.15,1504.74,15215.00
662,890.27,1506.29,15037.00
663,890.39,1507.83,15032.00
664,890.51,1509.38,14918.00
665,890.64,1510.92,15005.00
666,890.76,1512.47,14922.00
667,890.88,1514.01,14949.00
668,891.00,1515.55,14758.00
669,891.13,1517.09,14766.00
670,891.25,1518.63,14776.00
671,891.37,1520.16,14717.00
672,891.49,1521.70,14646.00
673,891.61,1523.24,14648.00
674,891.74,1524.77,14534.00
675,891.86,1526.31,14607.00
676,891.98,1527.84,14540.00
677,892.10,1529.37,14532.00
678,892.22,1530.90,14599.00
679,892.35,1532.43,14425.00
680,892.47,1533.96,14492.00
681,892.59,1535.49,14393.00
682,892.71,1537.02,14370.00
683,892.83,1538.54,14313.00
684,892.95,1540.07,14416.00
685,893.08,1541.59,14331.00
686,893.20,1543.11,14272.00
687,893.32,1544.64,14182.00
688,893.44,1546.16,14167.00
689,893.56,1547.68,14241.00
690,893.68,1549.20,14195.00
691,893.80,1550.71,14173.00
692,893.92,1552.23,14062.00
693,894.05,1553.75,14089.00
694,894.17,1555.26,14083.00
695,894.29,1556.78,14017.00
696,894.41,1558.29,13932.00
697,894.53,1559.80,13944.00
698,894.65,1561.31,13858.00
699,894.77,1562.82,13862.00
700,894.89,1564.33,13856.00
701,895.01,1565.84,13786.00
702,895.13,1567.35,13847.00
703,895.26,1568.85,13843.00
704,895.38,1570.36,13886.00
705,895.50,1571.86,13902.00
706,895.62,1573.36,13819.00
707,895.74,1574.87,13764.00
708,895.86,1576.37,13755.00
709,895.98,1577.87,13578.00
710,896.10,1579.37,13647.00
711,896.22,1580.87,13463.00
712,896.34,1582.36,13370.00
713,896.46,1583.86,13341.00
